timestamp,sequence,battery,flags,EEG-ch1,EEG-ch2,EEG-ch3,EEG-ch4,EEG-ch5,EEG-ch6,EEG-ch7,EEG-ch8,EEG-ch9,EEG-ch10,EEG-ch11,EEG-ch12,EEG-ch13,EEG-ch14,EEG-ch15,EEG-ch16
17734198182,0,-2,0,-102070.0389105058,-25555.0714077189,-102070.0389105058,-1908.2598927420,-55749.1989061526,5588.1242752075,-86489.3031287286,-73420.0651450844,-35206.4398568892,-15441.8901933306,-102070.0389105058,-102070.0389105058,12447.6025206570,-102070.0389105058,-1151.2101318122,-102070.0389105058
17734198182,0,-2,0,-39959.7992915588,44638.3517261609,-2281.0537880033,-852.6513548677,-54756.5460316402,6245.4962637638,58798.7765931898,-34079.6624602975,-26998.0750770420,78095.8798479013,45577.1868776255,52368.0028099030,102070.0267428090,59380.6358552629,6447.8937327166,58379.1370651601
17734198182,0,-2,0,98997.3669348988,24900.5101571287,99567.9589097138,-368.1945058622,-49696.8769971499,6433.5845212528,99058.4001021626,-52078.2169423679,-26045.0523910819,77351.9711995403,97893.3674667596,98190.6973063250,98159.5966732456,98203.9114250747,4463.1111946551,98527.0854526921
17734198182,0,-2,0,17644.7300261561,-48092.8946988592,79447.4189402065,-2296.2999121224,-55713.4380451900,5368.0958135583,102070.0267428090,-100590.2522936869,-36456.3300099354,-8488.0636267161,53278.6210724352,22859.5006920484,102070.0267428090,52134.0545030883,-3630.3540240930,26749.2821801033
17734198182,0,-2,0,-102070.0389105058,-43254.5925726686,-91557.4530479045,-2268.5332279725,-55988.9268689582,5322.5034535627,-64833.1268139850,-85831.9311401724,-37015.2774988909,-32633.6412021622,-98714.9911947287,-102070.0389105058,14638.4693398086,-102070.0389105058,-3137.6353089448,-102070.0389105058
17734198182,0,-2,0,-79112.7707744851,31758.5404466562,-56761.4296048532,-1076.8411688304,-54892.2036835192,6075.2580175140,4519.3989601581,-39988.3690436990,-28758.7529750186,55831.3795304948,-9784.6047293815,-855.9974714940,82889.5873652358,2783.4093190353,4931.7622054876,1724.6858507743
17734198182,0,-2,0,85963.0989119237,39545.9029164296,102070.0267428090,-313.0383361638,-50568.2057666407,6597.8362606657,100794.8034449774,-41474.7627198928,-24841.9835354104,88299.2845342317,99731.3589103491,99688.6259591069,99570.9278277386,99710.6494903564,6022.7665734198,99522.5612328674
17734198182,0,-2,0,72103.0214732723,-31798.2071382990,102070.0267428090,-1880.8825748904,-54237.7276068068,5438.8266351900,102070.0267428090,-92089.2179021576,-33352.5574012489,16390.6906884932,96389.8660088328,72969.2884808848,102070.0267428090,97632.2973637266,-1768.7572486670,80020.4809574766
17734234390,1,-2,0,-101076.8993281205,-56121.3479134823,-60214.4029446613,-2506.6307194038,-56254.6206967840,5120.9212202970,-22662.4205066072,-95441.2358614257,-38045.6015627672,-40025.2249973757,-76338.4872280670,-91447.2015469919,36979.8573334393,-83220.3175325802,-4491.2794128002,-98918.5080917893
17734234390,1,-2,0,-102070.0389105058,12800.4778962191,-95294.5299408315,-1366.0186515244,-55094.9540156799,5868.4436746145,-48379.8819961251,-49311.1975109531,-30931.2465719676,29890.6773073664,-61710.1779151056,-52991.4999305042,52269.2011117007,-54410.2898831497,2914.7352708453,-55338.2592813514
17734234390,1,-2,0,47872.0631692196,49785.0927991162,87014.8259545115,-689.2270188387,-53698.6986375504,6340.9396776429,102070.0267428090,-35988.8470979980,-25284.2914826211,95500.6872281026,102070.0267428090,102070.0267428090,102070.0267428090,102070.0267428090,6913.0282791672,102070.0267428090
17734234390,1,-2,0,99056.0395689790,-11015.0265675111,100862.4923424034,-1011.7683262213,-50773.3774704692,5971.5649051889,102070.0267428090,-78162.7535096402,-29946.7582220233,42860.7607296005,102070.0267428090,102070.0267428090,102070.0267428090,102070.0267428090,472.0701336397,102070.0267428090
17734234390,1,-2,0,-71962.0222024880,-61218.9801620602,-13566.9697898835,-2609.7884530687,-56434.5931004921,5067.7240497871,29931.5851040851,-101678.5554329245,-38283.5287064430,-37331.2969207764,-38186.4548211896,-61930.9607739578,69638.3693079076,-43374.0063492890,-4986.6871889463,-65949.3183143408
17734234390,1,-2,0,-102070.0389105058,-9657.3914590977,-102070.0389105058,-1666.7311108066,-55362.5581719068,5656.7500852889,-82391.1741679745,-62922.0075124896,-33437.5244281635,2293.5743480341,-96321.6295650497,-91565.1917030839,24685.6407989324,-96974.6211827497,520.5705731759,-98457.4983945617
17734234390,1,-2,0,-3431.8258827299,49895.5146477844,39066.9702017818,-792.4699263814,-54769.3221133043,6291.4536546640,90831.9054540493,-33247.7326931193,-26248.6787974139,89434.1169461202,79980.6925888655,84603.7846613487,102070.0267428090,92908.9191340287,7108.9525334102,92138.9351113761
17734234390,1,-2,0,98076.4548008544,10160.6595673914,98230.2544886964,-609.7111201008,-49743.1385804707,6262.7257224651,98654.0553690395,-62713.6722074872,-27462.4673939864,64742.5261434414,99624.6238738182,99578.8855014608,99767.9958454830,99988.2189902814,2876.6017090022,100764.9074138834
17734272328,2,-2,0,-25122.6923011156,-57291.3814722796,41391.0489657510,-2553.1478243579,-56481.7672610747,5119.5219351624,80961.5306297629,-102070.0389105058,-37548.0644396771,-24006.0505959774,13034.9494139972,-16937.5799898971,100223.8099361672,9962.6059662043,-4549.6600221567,-16264.0614676568
17734272328,2,-2,0,-102070.0389105058,-30718.8107531358,-102070.0389105058,-2031.2266368346,-55831.5133751598,5506.9900727921,-84107.5373141218,-76959.0519337339,-35808.9963712581,-20905.7457808855,-102070.0389105058,-102070.0389105058,10079.9755697584,-102070.0389105058,-1689.4360330782,-102070.0389105058
17734272328,2,-2,0,-51766.0303449816,41895.4365021524,-17473.2263394367,-909.5961759990,-54789.6665023922,6198.9669911129,44998.0288442471,-35089.5934642985,-27404.6464986838,72970.8337783813,31477.8803517382,39018.6401100010,101744.5165174017,45267.7745151149,6135.4272783035,44498.4718834844
17734272328,2,-2,0,98362.7850424919,29582.1653544207,99734.9970516992,-311.1888462467,-49754.2111845796,6470.4161395359,99522.7802514102,-49011.0204303311,-25687.1517567319,81137.9500659987,98828.9295077788,98540.9687947670,98317.5942164915,97947.6962330740,4940.1335809017,98133.9350006460
17734272328,2,-2,0,32801.2390582014,-44287.1189896699,89543.0786711697,-2182.3494313756,-55241.6356008804,5323.9270740910,102070.0267428090,-98641.5713120991,-35672.3288005428,-2325.5997260721,66672.6027165869,36989.4333108390,102070.0267428090,65342.4787706902,-3191.0514979975,41550.0199247427
17734272328,2,-2,0,-102070.0389105058,-47211.0895424038,-85165.4942174830,-2365.5949455291,-56040.0555310082,5234.7621917725,-56071.9592320780,-88513.3994952250,-37400.5067803053,-35644.0632408231,-94468.0878049205,-102070.0389105058,17893.5837615789,-102070.0389105058,-3588.4728116284,-102070.0389105058
17734272328,2,-2,0,-86275.7113786987,27823.2396047867,-68431.8204909447,-1131.8878292574,-54931.0429717780,6038.9617778912,-10009.9139714519,-41915.8295620276,-29272.9963458466,49598.9513731188,-23913.9532987246,-14723.5823790851,75214.9342711334,-12375.2898984382,4475.7655993510,-13009.9082939356
17734272328,2,-2,0,77567.1934209445,42728.4856974383,102070.0267428090,-588.4906568416,-52243.3812590425,6450.8748184382,102070.0267428090,-39794.3064470699,-24642.7009968442,90164.2882647681,99975.7349333411,99584.7746667231,99655.6880038072,99615.3155857487,6326.9224909029,99623.7112965565
17734289640,3,-2,0,82789.7149097131,-26592.8542697476,102070.0267428090,-1653.5169920569,-53731.3445681264,5543.2984801118,102070.0267428090,-89567.2072139696,-32692.8492149026,22995.7910641622,102070.0267428090,83505.8568739242,102070.0267428090,102070.0267428090,-1201.4383842973,90307.2587024377
17734289640,3,-2,0,-95332.7000057651,-58265.2717582910,-49601.8959557500,-2530.5159082672,-56293.3626434682,5113.5719314160,-9886.4118486991,-97418.9367999363,-38191.8451108821,-40427.5012220390,-68100.2994233068,-85455.2192465341,44840.5301765709,-74653.0908703340,-4680.0125582209,-92136.9517767940
17734289640,3,-2,0,-102070.0389105058,7137.4614470664,-101314.6804594344,-1450.1096042678,-55163.1539563725,5814.6624546571,-59582.0599084698,-52589.3575505060,-31556.3498285494,22788.5508518739,-72734.3910937179,-64718.1542467051,44726.9690621224,-67408.6266974067,2354.6926891757,-68325.1341252012
17734289640,3,-2,0,34633.3900073159,50273.7231681319,75830.3277056505,-590.8633577221,-54433.6275256561,6441.6760396401,102070.0267428090,-34925.2687187046,-25448.8474144546,95420.5751122204,102070.0267428090,102070.0267428090,102070.0267428090,102070.0267428090,6965.8117479851,102070.0267428090
17734289640,3,-2,0,99267.9765122410,-5404.7570840858,99593.1703775309,-859.3557558171,-50371.4906121043,6087.4743851242,101010.4515357704,-74008.4584603514,-29147.8272486290,48907.9600382408,102070.0267428090,102070.0267428090,102070.0267428090,102070.0267428090,1197.6907336758,102070.0267428090
17734289640,3,-2,0,-61334.7314619369,-60985.5794016025,597.6894356397,-2598.3629857520,-56445.7630461756,5080.9016654464,44319.9474356982,-102070.0389105058,-38174.3966336380,-34866.1580475388,-25585.5271528667,-51545.6003493372,78425.4297486539,-30338.9960968077,-4956.1219345271,-54340.6176511416
17734289640,3,-2,0,-102070.0389105058,-15506.1356325558,-102070.0389105058,-1740.0414841648,-55518.0613373040,5688.7754633269,-85900.6177887379,-66634.0432853550,-34040.3121287721,-4450.9069947417,-100996.6655352700,-97915.8290350947,19070.7840938049,-102070.0389105058,-111.2370843553,-102070.0389105058
17734289640,3,-2,0,-17021.1355639803,48617.7117982263,24486.7962974519,-800.0747368957,-54744.6946949347,6288.0101964631,80584.1738481930,-33100.2115368379,-26451.5264711491,85943.3629076769,68625.0313487962,74029.5815820360,102070.0267428090,81535.6877397471,6947.0856625746,80883.6330347024
17734339458,4,-2,0,98816.5914632003,15709.7863742814,98418.6469386060,-518.0396922368,-49604.3781659019,6317.8575567698,98281.3101445655,-58627.0052171403,-26907.6812573444,69600.8441309057,98990.1149875923,99218.8433524700,99332.0151006201,99440.6117947649,3463.5957391346,99575.5393848345
17734339458,4,-2,0,-10496.9017013965,-54873.7817905292,55493.1783973011,-2426.6159450961,-56536.4123875065,5162.1697125268,91556.0415950731,-102070.0389105058,-37222.2500218492,-19238.1629313013,26900.1859561015,-3676.3235826900,102070.0267428090,24471.6596826041,-4290.0987135297,-1780.1827159837
17734339458,4,-2,0,-102070.0389105058,-35447.6644464040,-101165.7356826248,-2134.7250660106,-55865.1448891784,5420.3682391096,-79252.0178969268,-80172.8813601839,-36320.0883086090,-25729.4588385853,-102070.0389105058,-102070.0389105058,9483.5759099819,-102070.0389105058,-2234.1594844477,-102070.0389105058
17734339458,4,-2,0,-61799.0507727003,38974.2766873846,-31219.1099434047,-966.5409971304,-54819.8545582100,6153.9221774743,31597.8660101093,-36327.2307466440,-27822.2783567377,67596.8731349544,17652.6633644846,25792.6213527932,95543.3228377702,31250.8432967190,5789.2928067812,30632.9433166563
17734339458,4,-2,0,96165.1529839067,33643.3531876204,99778.5817417189,-258.0768496146,-49703.1068579232,6500.1539905711,99711.2700428944,-46228.0491483815,-25379.8444057717,84336.9835731120,99417.5783446791,99233.4932594448,98670.0072195743,98964.3924765086,5381.3221000048,98336.4419788702
17734339458,4,-2,0,46888.1953718134,-40484.9692541338,98239.6844537342,-2093.6834246268,-54801.3353236454,5346.9483564800,102070.0267428090,-96701.0913581700,-34899.4245306527,3696.6193009907,78104.0078693791,49861.6397798293,102070.0267428090,78270.9730051835,-2624.1950061071,55645.7734831576
17734339458,4,-2,0,-102070.0389105058,-50685.7457179504,-77802.1273112019,-2442.7016402961,-56129.9018043488,5155.4044730932,-45635.7378347375,-90956.8311973305,-37659.1433439737,-37763.7733689542,-89322.2836446205,-100284.9891157930,23261.7039105308,-96839.5354126214,-3935.5685311997,-102070.0389105058
17734339458,4,-2,0,-92657.3276668207,23233.0124814223,-78913.9141053077,-1230.0203041344,-54994.3271629541,5961.2588659799,-23680.9419045652,-44169.8467276903,-29826.2980234762,43102.4598592914,-37668.4759674369,-28316.7248848347,67533.2239128736,-27277.0925328889,3985.8454544720,-27841.8196778353
17734396956,5,-2,0,68107.1376689213,45330.1217936356,101745.3317530888,-683.8245614493,-53001.8911435910,6281.1476154550,102070.0267428090,-38889.2609896827,-24942.4522080774,93342.0891409254,102070.0267428090,102070.0267428090,101381.6636304447,100272.7970835764,6569.6193717333,99662.5992556026
17734396956,5,-2,0,91387.0322862024,-21214.2333984375,102070.0267428090,-1375.3026042003,-52637.0305866583,5694.4942808337,102070.0267428090,-86221.0784199637,-31954.3673593247,29885.1531730088,102070.0267428090,92851.4754373276,102070.0267428090,102070.0267428090,-651.4584879003,99284.2812259837
17734396956,5,-2,0,-88484.3430352118,-59841.2075154049,-37955.6822832456,-2585.9397672957,-56361.8667765814,5073.2116810543,3710.5269784593,-99134.3143626410,-38299.3467123128,-39969.8011383472,-58908.1520199312,-78368.2050704956,53384.4800347948,-64870.1287800236,-4838.7279955793,-84102.6824030895
17734396956,5,-2,0,-102070.0389105058,1243.0032366445,-102070.0389105058,-1562.2227627943,-55261.2985989463,5732.4453272244,-69464.2252309777,-56145.6346363409,-32241.4763335588,15464.4856063308,-82732.8674301563,-75478.3649073501,37221.2157676192,-79369.7038605983,1734.2253250835,-80266.8646504443
17734396956,5,-2,0,21464.6445990536,50782.3572307245,63427.0642722163,-753.4237872766,-54879.9751482121,6480.3936509307,102070.0267428090,-34328.4066864489,-25828.3457106653,95371.2594369970,97821.5293847169,100464.9736871979,102070.0267428090,102070.0267428090,7016.9404100351,102070.0267428090
17734396956,5,-2,0,98745.3495983020,165.5901860634,99340.8366808168,-770.9452707016,-50176.9778106927,6153.8856743839,99877.6754646450,-70046.5712009237,-28533.2125467085,54736.0069594031,101290.4789104536,101218.1906236285,102070.0267428090,102070.0267428090,1803.1553275854,102070.0267428090
17734396956,5,-2,0,-49619.7703023829,-60438.5319201399,14559.7321736673,-2594.0191179862,-56464.5743054639,5088.7619975940,57513.3689331173,-102070.0389105058,-38045.0540164101,-31854.2758852591,-12855.7557428857,-40378.4167330553,86086.6618731606,-17026.2946674332,-4885.3546098049,-41956.9198741987
17734396956,5,-2,0,-102070.0389105058,-21146.1429670163,-102070.0389105058,-1840.0112812621,-55647.1971036859,5630.5652017259,-87540.1419294483,-70337.6833474126,-34731.8388423103,-10675.9250247525,-102070.0389105058,-102070.0389105058,13993.0825326229,-102070.0389105058,-716.7625167490,-102070.0389105058
17734414701,6,-2,0,-29218.8014241972,47136.0270207030,10104.8706774582,-818.8616607904,-54740.6550195894,6270.9997563047,69071.5493191077,-33278.4439599004,-26711.8665123728,82233.4078109682,56539.4664794091,62752.3654833842,102070.0267428090,69842.8839561076,6686.0885657225,69267.5100764412
17734414701,6,-2,0,99270.1058591850,20864.2782701129,99090.9730265577,-423.8738865240,-49600.0464658329,6387.6392980494,98162.5047527862,-55052.8537846725,-26426.7408727208,73925.9371404982,98232.2499909754,98368.7715493288,98623.7699716472,98897.3971378015,4018.6252297131,99239.3337539198
17734414701,6,-2,0,3998.7067100139,-51789.8425276641,68750.2856198916,-2304.8538029890,-56294.7740962997,5407.2514619345,100659.2674700667,-102070.0389105058,-36851.6463120160,-14024.0979918246,40481.0390880600,9700.3312611858,102070.0267428090,38493.9325199053,-3974.9066950282,12813.9718719957
17734414701,6,-2,0,-102070.0389105058,-39803.7485798045,-96694.1801063746,-2191.4630362960,-55921.3353131068,5370.1399866245,-72968.9842884643,-83130.2644083936,-36694.2571536112,-29788.4564863569,-101743.7012817145,-102070.0389105058,10530.6913954739,-102070.0389105058,-2711.7415847481,-102070.0389105058
17734414701,6,-2,0,-70894.0026138543,35688.4388311364,-44609.6359616588,-1005.9034963526,-54837.5463893905,6129.9396470363,17541.6939694594,-38000.7270968842,-28257.3221889451,61844.1685925198,3551.2274916534,12245.3510640660,88898.1542364633,16704.7389434933,5405.0369411127,16244.8973451607
17734414701,6,-2,0,92158.6467802293,37004.4604164153,101964.8735068652,-172.6961210080,-49598.3186528840,6555.6265203869,99559.4415219378,-43750.5357274749,-25075.8345006505,86750.6044180013,99635.1489315701,99594.9346935703,99530.2755526532,99371.4627737201,5742.4471740129,98994.5927000231
17734414701,6,-2,0,60197.4533429869,-36267.6211999084,102070.0267428090,-2002.1701768215,-54477.4799050060,5395.7651561336,102070.0267428090,-94402.9784592209,-34043.7920900634,10123.0857196021,87997.8176777465,61979.2786980418,102070.0267428090,89092.3263423638,-2219.8989437712,69489.4732018853
17734414701,6,-2,0,-102070.0389105058,-53601.8559385367,-69141.2337188127,-2476.9415391558,-56196.3252613053,5136.1065059320,-33883.6408644799,-93326.7335075349,-37861.1514466282,-39188.1482944414,-82982.9744383519,-96069.4418806974,30475.2377981342,-90229.6774674946,-4245.1269060721,-102070.0389105058
17734428862,7,-2,0,-98056.8769766663,18035.9336467105,-87947.8814499851,-1296.0057240052,-55042.1705468619,5915.5204936224,-36503.8326983322,-46760.5562321407,-30394.0670926283,36278.8884871665,-50396.3978875008,-41434.4146372279,59922.2078731552,-41620.3127092888,3410.8609411039,-42340.8958828403
17734428862,7,-2,0,57817.9628876861,47641.9476869041,94182.4389543051,-670.7321196679,-53377.8608077231,6300.7011042495,102070.0267428090,-37381.5373409583,-25237.7013714861,95296.1604122058,102070.0267428090,102070.0267428090,102070.0267428090,102070.0267428090,6780.0231851956,101965.7495810364
17734428862,7,-2,0,98036.6299291529,-15645.2854134229,101823.6308821444,-1145.2236249753,-51373.0745760847,5871.1205679155,102070.0267428090,-81881.0069755821,-30817.2109173430,37187.3165642705,102070.0267428090,101328.6246399935,102070.0267428090,102070.0267428090,-71.2662002920,102070.0267428090
17734428862,7,-2,0,-79771.7488990220,-60990.0571140334,-24483.4988516129,-2612.1976570397,-56412.7764200886,5058.2575816589,18846.5456090549,-100714.5331490365,-38345.8151464796,-38999.5368259890,-47725.6492733492,-70034.8415411864,62509.2549008618,-53503.6747928723,-4966.0507751346,-74581.5691484088
17734428862,7,-2,0,-102070.0389105058,-4643.0105921823,-102070.0389105058,-1641.3127921435,-55321.6503751881,5666.9587829234,-76626.7764688930,-59768.4811914941,-32900.6613089417,8259.1284109925,-90540.8784814382,-84968.5357090100,30586.5357209736,-89576.1748065281,1092.9146963335,-90579.8272789684
17734428862,7,-2,0,8861.4172360313,50914.1333873170,51420.8814569021,-780.9349497932,-54775.4546325031,6305.4830091009,99130.4085319608,-33518.9993260899,-26088.0895347447,92303.4058693318,89378.4984039425,93587.4507473601,102070.0267428090,100598.6236691011,7024.1071834638,98772.3010467648
17734428862,7,-2,0,97956.9436826595,5570.9556549903,98509.6613108416,-670.7321196679,-49939.2575178629,6226.1374581185,99396.5160614786,-66139.7427696198,-27940.7552207027,60326.9176371830,100093.2383815602,100051.9412185432,100927.0541417460,101146.7054047937,2392.5342262951,101835.9324236324
17734428862,7,-2,0,-36906.6077985652,-59290.5705633794,29227.4039858510,-2584.1876189532,-56476.8515115582,5099.1288752871,70635.4390563668,-102070.0389105058,-37824.5996853721,-28180.9455559875,666.6802766258,-29432.7338697382,93853.6191153619,-3514.5053826417,-4765.6366407639,-28722.1282075815
17734466097,8,-2,0,-102070.0389105058,-26320.7480656962,-102070.0389105058,-1942.2321022716,-55779.5451420290,5561.0511497765,-86231.5183038378,-73735.7560391556,-35311.0820495665,-16247.2457106475,-102070.0389105058,-102070.0389105058,11955.4800226531,-102070.0389105058,-1243.0884105222,-102070.0389105058
17734466097,8,-2,0,-40535.7815560664,44964.7258580427,-2948.4276233480,-857.6401105651,-54757.4707765987,6241.0428867266,57727.1066955091,-33922.3463080736,-27010.1332645936,77975.3223077796,44466.3856669623,50361.8902993109,102070.0267428090,57633.1720760360,6447.4678633278,57666.1952052135
17734466097,8,-2,0,99313.8000584762,25642.0826076997,99483.8314538800,-367.1480839355,-49630.4900432839,6434.2294091844,99001.9906596915,-51776.7865889731,-26009.0846792733,77808.8682152418,97948.9251704531,98009.1065989394,97980.7436976451,98064.0924208823,4501.0865764395,98199.7014019740
17734466097,8,-2,0,18995.9040875565,-48158.9166218205,80658.8713389890,-2287.7703566496,-55681.9115427218,5365.2120694112,102070.0267428090,-100538.1015451038,-36419.5713978333,-8134.3486800732,54439.6505355835,22310.8470746051,102070.0267428090,52347.9017747515,-3609.0240515624,27970.4322332538
17734466097,8,-2,0,-102070.0389105058,-43811.8365840689,-90718.3930103881,-2289.4494988111,-56002.4208447349,5307.6831988324,-63801.6833220011,-86016.9409703652,-37072.4291708683,-33031.7439068152,-98222.5766720011,-102070.0389105058,15270.7150344255,-102070.0389105058,-3197.9992528834,-102070.0389105058
17734466097,8,-2,0,-79197.4822797664,31770.6594726919,-56743.9567922154,-1085.5654074524,-54904.5417280976,6069.6852123691,4195.9937463011,-40024.7504571996,-28774.1086084091,55581.1630130278,-10159.7226547360,-2593.3742300546,82632.5691052448,1372.1390030263,4912.8049338374,1220.1036312237
17734466097,8,-2,0,85744.1533752916,40013.1181390369,102070.0267428090,-336.2543017020,-50665.0728010482,6577.6378839396,100627.0717442732,-41312.0684456732,-24809.6783003455,88615.7784962932,99549.5613521175,99711.8784277356,99447.2066864429,99726.0294591407,6054.0010511643,99287.1284670403
17734466097,8,-2,0,73273.2983860060,-31450.5273692803,102070.0267428090,-1897.1386178458,-54244.8700448418,5419.8815312367,102070.0267428090,-91927.1076773855,-33282.3984613678,16966.4295990643,97542.7187797161,73241.4311880268,102070.0267428090,98093.6234210716,-1729.4799233225,81212.4163705551
17734491240,9,-2,0,-100469.9137721080,-56602.2274596218,-58335.4185304753,-2540.4447488748,-56288.9701049152,5093.8480948660,-20084.0125436449,-95690.6371432056,-38075.0960598660,-40161.3936925213,-75014.9216707578,-91349.6896246528,38830.8317095389,-82653.0351713010,-4544.7929434275,-98192.9118271468
17734491240,9,-2,0,-102070.0389105058,12233.7674166906,-95577.8304259601,-1389.0034308229,-55122.0149734141,5853.2340535858,-48519.1656216573,-49715.7369272254,-30999.2883326015,29153.5947369230,-62401.9114794898,-54756.3756838847,52346.4659865264,-56328.1987594723,2841.2423820347,-56884.3841812490
17734491240,9,-2,0,46636.5308984244,50260.6307263504,86661.5125418637,-698.0120959449,-53784.3835585776,6332.8116561652,102070.0267428090,-35840.9244077215,-25285.8002770272,95573.2675396515,102070.0267428090,102070.0267428090,102070.0267428090,102070.0267428090,6921.0954621608,102070.0267428090
17734491240,9,-2,0,99039.8443645077,-10269.2075907488,100754.6013746744,-1003.2996092325,-50767.4518021164,5977.0038656687,102070.0267428090,-77688.1281596677,-29838.7820804165,43672.9301571382,102070.0267428090,102070.0267428090,102070.0267428090,102070.0267428090,548.8239651988,102070.0267428090
17734491240,9,-2,0,-70594.9571290369,-61669.3431245678,-11018.8715597071,-2622.9904041216,-56456.5557932575,5055.5806883578,32806.0818015369,-101924.5497595939,-38312.9258619672,-37340.8242273887,-36151.5048691271,-61283.4689552218,71036.9122130398,-42319.8822704271,-5022.5940622708,-64803.4011306466
17734491240,9,-2,0,-102070.0389105058,-10383.2919161607,-102070.0389105058,-1680.7117944562,-55387.1855902765,5653.6108195086,-81777.8492419172,-63235.9584259152,-33510.8226338249,1540.3087408162,-96415.9535508212,-92271.2588143256,24667.2310736393,-97816.6501382909,468.6145077420,-99135.1904368122
17734491240,9,-2,0,-3919.9938792663,50316.5656286455,39180.5556516239,-788.6005987917,-54764.5645438465,6296.4424103614,90596.6917067650,-32965.5273007048,-26224.5259192203,89502.1830421477,79715.4611335190,83734.5000649241,102070.0267428090,91809.2635336553,7179.9753797657,91689.3265460716
17734491240,9,-2,0,97909.3071495976,10807.0927965038,97956.8220056912,-602.3496635229,-49743.1629158643,6263.4071134872,98714.9303562446,-62341.7908894877,-27395.8127507904,65364.7699912698,99440.1615899825,99495.2812565904,99578.9950107322,99839.3107165622,2946.3347794945,100607.1897276645
17734504600,10,-2,0,-23696.6869042541,-57550.7724331511,43739.9619989358,-2563.8797329558,-56501.2477436882,5110.9437089022,83146.2649297158,-102070.0389105058,-37540.1067659549,-23784.7323584649,15054.2760433390,-16018.0793086842,101315.2036703978,11025.6367991407,-4535.1561275438,-14954.0507246084
17734504600,10,-2,0,-102070.0389105058,-31242.4597536080,-102070.0389105058,-2050.4637655117,-55846.5769838266,5491.5614332207,-82378.5197632786,-77205.6911483349,-35857.8010032149,-21302.9602436704,-102070.0389105058,-102070.0389105058,12034.8134059387,-102070.0389105058,-1732.2419905013,-102070.0389105058
17734504600,10,-2,0,-52110.6438544010,41941.1383714194,-16949.1758049694,-925.4263495657,-54807.6625259934,6184.3779226221,45538.7977941491,-35102.3817136594,-27428.1179858553,72737.5060241046,31513.4952003390,38370.3695586683,101833.5475550551,44457.2477266482,6133.1640866944,44108.5823741868
17734504600,10,-2,0,98241.4609374703,30040.6441707092,99481.4830883932,-326.9216782388,-49776.7944298830,6460.7306528648,99537.3084814168,-48812.9911645377,-25660.7843577166,81424.9982017487,98808.1957523925,98494.7072114462,98280.3245611228,97875.9068218187,4986.4681704035,97910.7307701259
17734504600,10,-2,0,33866.6060889278,-44174.4461170894,90955.0303782007,-2191.2926885404,-55186.8322943899,5304.8481254726,102070.0267428090,-98518.0570216494,-35605.5403126817,-1862.6797004433,68485.6747170830,38030.5379541004,102070.0267428090,66179.4094612626,-3132.5492116728,42732.3306896343
17734504600,10,-2,0,-102070.0389105058,-47658.0212144072,-83843.4252868831,-2386.5963902455,-56062.8334594608,5217.9342670663,-53602.2939756223,-88692.7270110015,-37422.0801067723,-35762.9294710864,-93634.4180570966,-102070.0389105058,20223.6246969913,-101851.0568707834,-3591.1983757167,-102070.0389105058
17734504600,10,-2,0,-86936.7823470891,27413.3342342154,-68865.6718888635,-1168.8532922055,-54966.2684540804,6006.2428411343,-9995.4465799295,-42168.6986374020,-29331.3404521126,48982.4871812813,-24653.6397562880,-16030.7337133801,75468.2170481997,-14194.7742751600,4453.5230495586,-14584.8706353035
17734504600,10,-2,0,76528.8995156492,43196.0659509503,102070.0267428090,-635.7499913019,-52404.0191924989,6404.5037258460,102070.0267428090,-39607.4714623537,-24644.4409774899,90379.3766415073,100025.9875212198,99585.9792687086,99521.6364879089,99634.7717329686,6380.8497232222,99556.8984733018
17734554589,11,-2,0,83771.2708447230,-26122.7066322060,102070.0267428090,-1648.8567641737,-53675.9085414011,5528.9771009512,102070.0267428090,-89279.7940473148,-32631.3050043722,23747.5113738836,102070.0267428090,84459.6339570873,102070.0267428090,102070.0267428090,-1138.7990810528,91307.3582074058
17734554589,11,-2,0,-94679.8787358206,-58888.2091648384,-47501.9339995625,-2588.8721822301,-56352.5463208150,5061.5793628915,-7171.8595259848,-97693.9510835284,-38247.5366592407,-40554.5806476578,-66639.9081152237,-84783.3311956680,46468.4098314218,-73976.2749022547,-4718.5841571496,-91359.3386082334
17734554589,11,-2,0,-102070.0389105058,6561.0898162604,-101471.2665498489,-1492.6113692703,-55205.6922244655,5778.0985257041,-59600.5669753375,-52828.5988054387,-31635.3303486271,22096.0750579834,-73285.5999274940,-65731.2123487896,44645.0561271103,-68932.8984138103,2317.0580029024,-69468.3014094134
17734554589,11,-2,0,33744.1868911921,50797.1044792739,75654.6018281336,-609.0662321692,-54523.3521220285,6441.7855489115,102070.0267428090,-34632.7207839906,-25442.8122368304,95625.6616421711,102070.0267428090,102070.0267428090,102070.0267428090,102070.0267428090,7017.9259934778,102070.0267428090
17734554589,11,-2,0,99190.2979357233,-5012.2880230618,99565.6227119238,-882.9732553504,-50376.3941939239,6064.9398106081,100958.1061040381,-73788.5881787608,-29115.9843860433,49439.4085323764,102070.0267428090,102070.0267428090,102070.0267428090,102070.0267428090,1254.7328963818,102070.0267428090
17734554589,11,-2,0,-60585.2986792182,-61442.3669080326,2374.6233765717,-2627.9304890317,-56478.7861753531,5055.6293591451,46211.3429006436,-102070.0389105058,-38203.1123981402,-34847.2859497664,-24270.0774493384,-50996.2288377814,79484.1897200054,-30001.2086653060,-4942.3237663299,-53582.4119590136
17734554589,11,-2,0,-102070.0389105058,-15932.0901952365,-102070.0389105058,-1763.8293314537,-55553.3841611810,5666.9952860138,-85147.4616907914,-66801.6776444847,-34090.1388472620,-4799.4506702349,-100906.8314296262,-98173.5165184110,20030.3164975652,-102070.0389105058,-113.7436299009,-102070.0389105058
17734554589,11,-2,0,-17255.1812123696,48865.5312794192,25157.6135909975,-811.8165643299,-54762.0458306042,6277.3269586526,80700.4361913362,-32996.6157660874,-26445.0045856520,85956.0781508568,68692.7810847064,73664.9765467366,102070.0267428090,80883.0368175581,6986.8375280952,80723.8103369331
17734568497,12,-2,0,98793.1443114225,16072.1038825781,98342.8300197022,-524.7684285798,-49566.1472624842,6309.2306597224,98004.7383957800,-58459.7845597026,-26868.1970811540,69942.2940391511,99001.1875917012,99005.2272670464,99161.0589602578,99516.3800428814,3521.4044667404,99670.8002832613
17734568497,12,-2,0,-9327.1845027167,-54708.1672690722,58104.1106138712,-2390.1006869305,-56562.9744696710,5180.2144069152,93738.0746663313,-102070.0389105058,-37177.1078666360,-18684.0095148940,29239.5838503708,-2366.5440258813,102070.0267428090,25804.5091925892,-4232.5211721636,59.3661927991
17734568497,12,-2,0,-102070.0389105058,-35928.5439925435,-100256.4680344400,-2140.0788526127,-55875.4874314779,5413.6760058570,-77205.2409435525,-80440.3395040490,-36334.0203214712,-25966.6437527549,-102070.0389105058,-102070.0389105058,12352.2442806556,-102070.0389105058,-2238.1504890056,-102070.0389105058
17734568497,12,-2,0,-62548.6904062650,38794.4867991288,-31215.1189388468,-974.5595093367,-54830.2944420841,6149.3106203784,31831.7656461367,-36527.5962102274,-27854.8634488295,67101.6843773512,17411.7794704808,24845.5121674890,95793.8557153546,30064.5415272694,5777.1129422615,29969.6943305346
17734568497,12,-2,0,95774.4969097093,34179.9121144217,99654.2400478853,-252.0295042936,-49689.3816959069,6506.3716836477,99655.3959790835,-45945.5760666369,-25334.5805735904,84663.5158850525,99412.0785457151,99021.4346392146,99058.9719839133,98858.6430234204,5433.7527056149,98163.5146716226
17734568497,12,-2,0,48641.1954530946,-40066.0597879135,99999.2550912998,-2081.7469140435,-54727.6234162921,5350.1362930476,102070.0267428090,-96401.9363640811,-34758.4860983526,4483.3460744717,80197.1924184361,51522.1166944689,102070.0267428090,79869.3581629356,-2564.9261548825,58014.3251790147
17734568497,12,-2,0,-102070.0389105058,-51309.7417141213,-75836.7765849666,-2452.8008286591,-56151.2561122731,5147.5928117329,-42491.3494540560,-91312.7850001888,-37683.5030730132,-37966.3168502689,-88085.7171195954,-99782.6700878514,26236.3285851386,-96148.4345684719,-3964.0652771590,-102070.0389105058
17734568497,12,-2,0,-93209.6437610077,22768.2794689668,-79095.4561419060,-1239.0852382675,-55012.2015095870,5956.2579425856,-23444.8885862002,-44412.3489253716,-29875.8083818488,42431.6912365331,-38024.6609565349,-29443.9281508153,67968.7909560445,-28724.5739146429,3945.0958378120,-28797.7382756393
17734613516,13,-2,0,67400.7785329559,45890.7119216622,102020.6258937079,-682.8633134003,-53031.5924915358,6276.3535429068,102070.0267428090,-38627.0227877546,-24931.9758211128,93689.0023450443,102070.0267428090,102070.0267428090,101508.3293543715,100045.9547117063,6625.0432307618,99679.9138881817
17734613516,13,-2,0,92427.0661721434,-20716.4407537141,102070.0267428090,-1349.3854099674,-52453.0671783922,5711.3952117207,102070.0267428090,-85865.3801387386,-31834.6007194964,30650.6959863210,102070.0267428090,93998.6823968850,102070.0267428090,102070.0267428090,-579.0363564102,100349.9524491307
17734613516,13,-2,0,-87625.4496518740,-60360.8533436222,-35327.5084402775,-2602.7920273955,-56389.0859143743,5058.6834510477,7116.2896545945,-99387.1104318344,-38309.0930374680,-40011.3781583912,-57023.8381545367,-77525.6164009005,55835.4800443241,-63903.5269444091,-4849.5207426613,-82997.4783329648
17734613516,13,-2,0,-102070.0389105058,758.8992508469,-102070.0389105058,-1581.4963945619,-55294.5772497571,5713.9139249631,-68190.5472306426,-56386.0683255622,-32285.1948682436,14973.8719027330,-82604.7050795203,-76061.0150697166,38875.9495293584,-80072.3153459423,1701.1656928155,-80656.5351411990
17734613516,13,-2,0,20947.8581795897,50955.8685874197,64290.5570449532,-775.9340263990,-54912.8644327245,6458.1145980479,102070.0267428090,-34214.5900503671,-25838.9924453854,95298.5331130863,98086.6634984889,100203.1613546587,102070.0267428090,102070.0267428090,7024.2410281289,102070.0267428090
17734613516,13,-2,0,98781.9743657390,504.9837535457,99258.8994104111,-780.0710433188,-50188.9143212760,6142.5940517322,99676.4704299808,-69716.8752878093,-28490.2727446204,55133.8541424228,101170.6635998381,101043.7910250653,101760.3710263620,102070.0267428090,1867.2182513582,102070.0267428090
17734613516,13,-2,0,-48529.6176732282,-60351.5815586431,17641.8584497058,-2609.0705589562,-56493.7767778389,5074.4771215238,61037.3164484937,-102070.0389105058,-38000.7635999746,-31289.2202124985,-10310.8576169738,-39008.8937848459,88435.6600802232,-15600.5934629923,-4840.9668517948,-40177.8444186259
17734613516,13,-2,0,-102070.0389105058,-21717.4771713376,-102070.0389105058,-1866.7558788789,-55692.1202403562,5607.1423853418,-85596.1820142278,-70745.0821724383,-34780.3636172402,-11056.4089044059,-102070.0389105058,-102070.0389105058,17428.9359230012,-102070.0389105058,-756.4413760887,-102070.0389105058
17734636083,14,-2,0,-30912.6299958285,46623.4262889461,9938.0758894093,-855.7054467702,-54781.0274376480,6239.2177322031,69167.4186023757,-33537.3360452021,-26786.8073571053,81496.9214576692,56141.0352469418,61682.1557093223,102070.0267428090,68619.8357422528,6634.9477359757,68290.5656985272
17734636083,14,-2,0,99294.8184514324,21500.7704909210,99153.6001621053,-445.5445545657,-49642.4630569577,6371.6874475145,98365.1455756755,-54547.8213603395,-26379.7005568033,74310.9717387634,98140.9922648033,98297.6635290955,98504.6117166601,98836.3761382344,4091.4975659857,99082.7233281117
17734636083,14,-2,0,6285.5279863113,-51035.0316229497,72218.7971085426,-2338.6921678536,-56163.7888400007,5417.0464578770,102070.0267428090,-101873.2750851820,-36793.4117150214,-12917.2391149321,44104.9077297463,12449.9630538406,102070.0267428090,41153.1704928625,-3896.3033735520,16103.1436771734
17734636083,14,-2,0,-102070.0389105058,-40499.5339872308,-95078.4559806497,-2236.3983406631,-55971.2228700809,5329.3782022677,-69387.9337718978,-83661.5182193801,-36742.2343821841,-30075.1152558086,-100877.6654603416,-102070.0389105058,15094.3321012801,-102070.0389105058,-2771.2659576060,-102070.0389105058
17734636083,14,-2,0,-72401.5194117327,34966.4807078439,-45322.4926477276,-1038.5980977159,-54874.7187031846,6102.8665216053,17600.1475849968,-38354.4785466176,-28352.3275657387,60753.8334479128,2625.9593221464,10516.4673578878,89255.3613120944,14697.9450418791,5333.5152191875,14698.5290913266
17734636083,14,-2,0,91244.6945687676,37576.5976887269,102070.0267428090,-177.8673921578,-49609.1600707533,6544.7972702145,99664.2783977642,-43296.9361576125,-25037.2385663281,86962.3588458109,99703.5435554119,99642.6077297226,99581.4772208841,99453.1931932798,5821.4641971811,99096.7161794581
17734636083,14,-2,0,62615.4910618229,-35600.6975693461,102070.0267428090,-1995.4171050847,-54412.2245469446,5391.1535990377,102070.0267428090,-93943.5140594898,-33866.8372751674,11286.6095605991,90497.3181268121,64480.6773078117,102070.0267428090,90847.7356276160,-2104.5126747992,72282.4828337139
17734636083,14,-2,0,-102070.0389105058,-54349.0133619494,-66351.9960729992,-2495.6919599600,-56226.8053418468,5120.4466801209,-29578.0891759850,-93805.8852407255,-37891.1934900840,-39252.5032429380,-81150.7261476628,-95110.5787002623,34287.7665790602,-89026.6451149135,-4252.0381578676,-102070.0389105058
17734677251,15,-2,0,-99129.1552591880,16951.3903257912,-88859.1202650553,-1318.1265968293,-55067.5036916473,5900.3595433810,-36759.7558656091,-47313.7484004989,-30496.3852552125,35090.2505199269,-51815.3946909923,-43316.4288079228,60445.0659733338,-44304.3119452807,3346.5546633947,-44619.6743115377
17734677251,15,-2,0,55527.9293394274,47804.1187501603,93239.4424505271,-676.6456203238,-53419.6325109163,6308.5979394876,102070.0267428090,-37216.5433720392,-25273.2310462091,95079.0278624004,102070.0267428090,102070.0267428090,102070.0267428090,102070.0267428090,6821.3081805159,102070.0267428090
17734677251,15,-2,0,98430.4739399179,-14707.1438206773,101607.9584559578,-1115.1694138226,-51149.1646191489,5896.8065759087,102070.0267428090,-80999.3843345791,-30592.6804078692,38284.2222651619,102070.0267428090,102070.0267428090,102070.0267428090,102070.0267428090,82.0954504644,102070.0267428090
17734677251,15,-2,0,-78472.2145429381,-60588.4866157858,-20700.7565925093,-2603.7046046572,-56417.8016788765,5064.8889764274,24170.7890432632,-100779.6181593424,-38252.9999551142,-37941.8111088675,-44624.6995703256,-67625.7349118185,67250.6778249481,-51079.2368655075,-4876.6060357892,-72155.8414451807
17734677251,15,-2,0,-102070.0389105058,-6017.5222960891,-102070.0389105058,-1657.1794688006,-55337.9307535372,5659.3174693186,-75767.9317563424,-60728.6949862766,-33026.9254988733,6939.1401565492,-91707.7119359710,-86399.7245447181,33541.4487267283,-91477.0732426922,973.4644166227,-92439.7084091424
17734677251,15,-2,0,3943.0029939585,49807.1893365467,47943.3658726021,-798.1157377072,-54794.0955440358,6293.8993617254,97861.7071196263,-33895.8085613028,-26220.6809270243,90510.4835747745,86931.3190512156,91209.4447510716,102070.0267428090,98883.4407895456,6969.3038769733,96284.6762697984
17734677251,15,-2,0,98178.6877895608,7137.1572546458,98464.8720188364,-652.9429469127,-49900.1383725771,6237.5629254352,99295.3051593053,-64915.0762520876,-27789.6202584649,61537.4452910071,99565.8538981634,99698.0194210542,100416.2907322093,100774.0331865006,2584.6621591293,101345.3673908219
17734677251,15,-2,0,-32578.6675479162,-57734.1274565760,36111.3758050050,-2564.1230868922,-56475.6469095727,5112.7931988193,78185.6652827578,-102070.0389105058,-37604.4008759673,-25616.1897488605,7340.4186300730,-22903.8397792712,98767.8355020308,2990.7225375046,-4559.2725026468,-22428.3991936116
17734691869,16,-2,0,-102070.0389105058,-28044.6065130865,-102070.0389105058,-1981.3634152542,-55835.8450752288,5541.1569654710,-81993.1809725928,-75283.7182612735,-35469.8704931059,-17499.3017137283,-102070.0389105058,-102070.0389105058,18275.0288892813,-102070.0389105058,-1373.3071019213,-102070.0389105058
17734691869,16,-2,0,-47485.7509627880,42363.7589851706,-10126.5048424094,-909.5110021213,-54799.3154859728,6201.0841703600,54152.1521950510,-35194.1018123107,-27323.1837684542,74544.6766916416,38906.7216346236,45120.1560172589,102070.0267428090,51855.5237551144,6197.0323273180,50498.2901806961
17734691869,16,-2,0,98743.4027668103,27230.1738939397,99748.7830521995,-363.7046257346,-49768.1675328355,6432.5502670229,99325.6392274849,-50500.0301613418,-25901.2058792411,78633.3878550548,98591.4647365822,98576.9851773629,98431.6785419034,98345.9692854826,4697.0351660762,98169.3916691880
17734691869,16,-2,0,27207.0187668856,-44306.4291245279,88044.2374411260,-2209.8605938923,-55292.7520952336,5313.6575379724,102070.0267428090,-98516.1831963387,-35740.3218903894,-3543.1359732661,64741.0173490354,33587.2966083571,102070.0267428090,62352.0360902126,-3216.5549905384,38700.9293782572
17734691869,16,-2,0,-102070.0389105058,-44890.0040318530,-85895.3005052262,-2334.4699770560,-56020.3681975487,5263.6361363333,-53145.8836677937,-87443.0193734076,-37115.2716313819,-32793.0015274523,-95003.2596142839,-102070.0389105058,27852.6854310982,-102070.0389105058,-3285.1686329229,-102070.0389105058
17734691869,16,-2,0,-86688.7195119598,26451.5751419364,-66657.5026048297,-1179.0133190526,-54984.5686701021,6006.1941703470,-1811.3320198504,-43236.3045243438,-29394.2231092935,49334.4134764913,-21916.2486666371,-14060.9782808950,82177.5337471572,-10461.3720266736,4366.5483526683,-12785.8158215475
17734691869,16,-2,0,74401.3533907642,39131.2764794910,102070.0267428090,-698.7786608447,-52552.8909631276,6347.7657555606,102070.0267428090,-41953.9631238707,-25140.4084676898,87021.5303554609,101268.7109008374,100235.8559560219,99518.2051974048,99659.6303375779,5983.1363848675,99619.6472858177
17734691869,16,-2,0,82223.8805043558,-22602.1417365464,102070.0267428090,-1445.5832210496,-52986.5720132909,5654.0610242910,102070.0267428090,-85911.6417220594,-32133.6948751012,26185.1147492108,102070.0267428090,89120.4215543279,102070.0267428090,102070.0267428090,-739.4066005365,97307.6023740063
17734764544,17,-2,0,-91743.2294429972,-52883.7793105307,-39603.4561224021,-2473.1938885344,-56259.1592476990,5149.8073325547,15117.7184145738,-95801.6795444117,-37500.2818942534,-32406.6406502334,-59439.9533772747,-80030.7504935951,72872.6526327170,-66486.6194706483,-4054.2400783138,-85866.7550884796
17734764544,17,-2,0,-102070.0389105058,1717.0932079568,-102070.0389105058,-1584.4044741026,-55339.0745170385,5724.3781442308,-41585.9267980672,-57930.6235925697,-32202.8925669332,18672.0851720075,-79137.7267206689,-73831.1386145506,68030.7610359637,-76690.1945047341,1589.2593851349,-79903.3060370716
17734764544,17,-2,0,-5758.1191675208,37057.2438852332,48615.5459481918,-892.4153880850,-55055.8227026973,6406.4505573377,102070.0267428090,-42188.6536601916,-27337.2009551943,80452.7992255957,86951.5052602449,88728.5487104483,102070.0267428090,97899.5364890488,5674.0525501711,96596.0111284070
17734764544,17,-2,0,93787.9743910021,2672.6589425529,99663.2319758375,-751.1240925770,-50145.0376065325,6161.3566402331,100002.9662388308,-66353.4196935275,-28405.1232022534,52597.7045905265,101449.1700124184,101020.0518485637,101694.6411281244,102070.0267428090,2114.6605339496,102070.0267428090
17734764544,17,-2,0,-33233.7276740761,-35998.7516032119,56681.1836443059,-2052.8973048763,-55876.8988843094,5585.5933942683,102070.0267428090,-89985.0945936567,-35186.6551818551,-2733.8989606627,43061.9535965678,1183.0286590042,102070.0267428090,46054.3309408403,-2046.0468915650,18650.6700255991
17734764544,17,-2,0,-102070.0389105058,-10320.4579297671,-45831.2240518948,-1790.7564445228,-55578.9971629933,5598.0287804214,63325.9263762240,-68131.6677457164,-33009.7447109593,13371.0212002468,-19229.1953387427,-48041.3888382077,102070.0267428090,-13191.4138274434,587.6145826703,-28289.4449085577
17734764544,17,-2,0,-23146.8286848254,20957.2151384465,61378.7176859518,-1099.7407742511,-55174.1657219972,6218.1554490026,102070.0267428090,-50703.3523752532,-29198.6273828647,61358.3611291670,93090.2908228715,78675.5610922431,102070.0267428090,102070.0267428090,4133.8289832327,98527.2801358412
17734764544,17,-2,0,64453.2513191728,4138.9759189888,99709.1650313440,-711.8345995358,-50026.7919288071,6176.9434598633,99809.9987349158,-62412.6920588749,-28488.2529069477,50727.7486073832,100790.6907634512,100587.4415557208,101386.7497277167,101543.8955321850,2349.7282688720,102070.0267428090
17734774747,18,-2,0,-25712.6065784855,-29143.2886977140,74954.3752113669,-1987.5324375435,-55155.9750152469,5512.4533686656,102070.0267428090,-86982.6180610211,-34460.4748677651,3928.8397948566,62772.1136553278,15693.9196976242,102070.0267428090,66049.5679684650,-1581.9100962539,43257.0261120332
17734774747,18,-2,0,-102070.0389105058,-19815.2524562197,-49893.0446053293,-1949.3258695194,-55730.1686283216,5494.8223759692,53258.7390558265,-75463.9461866149,-34071.4370972452,1372.4431954469,-37216.9084029439,-74068.7493981091,102070.0267428090,-37182.9118580206,-666.7654505036,-53602.8536896761
17734774747,18,-2,0,-68783.6981153674,15244.5544862562,11863.1637068574,-1355.1407305647,-55271.4829611871,5906.5529010639,97885.1177683136,-53093.8302607852,-30145.4445434452,49078.3442968524,51881.4896201345,31596.3085449159,102070.0267428090,64281.8693094216,3543.1116378725,59099.6837356211
17734774747,18,-2,0,41999.5919869568,12548.1563672018,102070.0267428090,-680.3202647643,-51003.1522572736,6234.7886905596,102070.0267428090,-56074.8429762250,-27811.6559574112,58108.1867923069,101729.7084303681,101038.0843752553,101313.7435467791,100963.8249215449,3312.4607768968,101166.1615520136
17734774747,18,-2,0,460.4621508706,-22112.5987902690,96986.7523764822,-1786.4734152412,-54126.2593362118,5495.1995745707,102070.0267428090,-82247.2424822559,-32732.9174405406,15633.6287598666,86750.6895918791,48665.1049773517,102070.0267428090,92549.9477423583,-800.9264756733,75547.7207792408
17734774747,18,-2,0,-102070.0389105058,-26763.1533544815,-32124.4595932126,-2060.8428109017,-55877.6532815124,5426.6832737607,62895.8347966235,-81303.6254259399,-34714.8527375455,-4758.4576996384,-30908.7850036324,-72654.2181393516,102070.0267428090,-33385.8847228470,-1485.6514466876,-52642.0436777493
17734774747,18,-2,0,-94125.5184685674,8217.7217387040,-30361.3603235683,-1487.2819180618,-55355.5982493241,5811.8395489941,74756.6744733877,-57410.2963733302,-31120.9044623468,36068.8862076993,9952.7744671714,-12233.6092366319,102070.0267428090,19132.4013105162,2465.6864195946,12939.0192922451
17734774747,18,-2,0,11836.9788232944,18079.5913429112,98592.2434691789,-1119.3672692265,-53423.8668694107,5966.9655157898,102070.0267428090,-53630.1336659532,-28335.8646719372,62635.3730784316,102070.0267428090,102070.0267428090,102070.0267428090,102070.0267428090,3921.6121829437,102070.0267428090
17734787170,19,-2,0,26198.5965572906,-12934.7849337507,102070.0267428090,-1404.4077350008,-53301.5571809464,5704.1432644143,102070.0267428090,-76786.1854649703,-31439.9536407411,29285.1640426695,102070.0267428090,80503.0518134744,102070.0267428090,102070.0267428090,268.6384104569,101076.1936017048
17734787170,19,-2,0,-88228.8822404142,-30978.2990555819,-1182.2985971948,-2122.8737293050,-55978.5356558714,5395.1811066861,81920.2964686234,-85523.5043611044,-34989.5749964139,-5750.5143570065,-8680.0942179758,-53071.1496739072,102070.0267428090,-11004.8422052703,-1887.1489387542,-33033.0823534658
17734787170,19,-2,0,-102070.0389105058,-2063.4466980218,-59936.8821155236,-1631.1405975995,-55453.4752025678,5713.5002232711,52357.2587336084,-62912.0056657012,-32179.4819182459,22557.3281091475,-25442.8244045272,-48404.1930543773,102070.0267428090,-21245.2731930328,1370.8735625568,-28681.1960754691
17734787170,19,-2,0,-21891.5969128739,21030.8905427094,69311.1921080356,-1116.9824006493,-54628.8947242707,6083.2643620235,102070.0267428090,-51311.2505085274,-28771.1153549907,61911.3099435888,94762.5582357325,84463.5032846770,102070.0267428090,102070.0267428090,4015.3886223582,102070.0267428090
17734787170,19,-2,0,40782.1287459437,-2563.2226773273,102070.0267428090,-911.4821690066,-51051.0808150592,6053.7698649247,102070.0267428090,-68261.1563753061,-29477.9490311322,42540.3366014651,102070.0267428090,102070.0267428090,102070.0267428090,102070.0267428090,1502.9052407825,102070.0267428090
17734787170,19,-2,0,-63109.4630497439,-31004.1189082402,35410.6259772750,-2031.8593570694,-56109.7642661069,5462.5049732075,102070.0267428090,-87461.6967880309,-34846.9574219522,-1488.1944953236,22455.2533004998,-21516.0652858274,102070.0267428090,21806.3621966292,-1890.6775708328,-1610.7232023306
17734787170,19,-2,0,-102070.0389105058,-12584.5742837928,-70080.3365596074,-1810.7479704029,-55601.9454392014,5593.9891050762,39951.6347669906,-70209.4844936861,-33310.5423441193,9474.7299943917,-47142.9261048016,-72646.0292793897,102070.0267428090,-47953.5867379333,180.3130992192,-58260.5506919237
17734787170,19,-2,0,-55074.4879496237,18384.4164837195,27343.4308159676,-1268.8595923932,-55289.9778603580,6001.2175823464,102070.0267428090,-51999.6987947694,-29745.2611626354,55667.9551944658,65092.0675700741,52896.6283983758,102070.0267428090,77318.9602380597,4034.5284094606,75317.2767691111
17734827201,20,-2,0,39695.5899227454,6760.7252180344,102070.0267428090,-729.6359399877,-50771.8808437600,6183.8912147492,102070.0267428090,-60642.7667113130,-28382.9901617325,52380.6207115084,102070.0267428090,102048.9279565180,102070.0267428090,102070.0267428090,2628.8308985966,102070.0267428090
17734827201,20,-2,0,-29934.0064757529,-25946.4210406352,70756.2642858186,-1922.5691042058,-55132.1750002612,5574.8128148832,102070.0267428090,-85306.0432834848,-34117.3336496613,8185.3921682454,57621.0165469099,18122.4946419089,102070.0267428090,60126.5035028124,-1254.2218531152,38150.5357801682
17734827201,20,-2,0,-102070.0389105058,-21171.1962547748,-58821.4815154614,-1958.8775115254,-55762.1331678754,5498.4605173193,45228.1929973498,-76941.1775871010,-34175.7385944114,212.7521789491,-48475.3254100043,-78449.9963285394,102070.0267428090,-51815.2000078431,-855.5837698020,-66602.6871306423
17734827201,20,-2,0,-81382.9223061350,12425.5789894074,-13646.8750549198,-1399.5771593621,-55298.8846144324,5879.0174031536,85434.7531804779,-54817.7130435691,-30494.9616346842,44648.9862931842,27949.6741424739,13754.7295195583,102070.0267428090,38431.2323781767,3118.1548263312,34073.3717610400
17734827201,20,-2,0,24162.9043757220,13685.0694552470,102070.0267428090,-1000.2820204204,-52674.3124097238,6114.0242995919,102070.0267428090,-55981.2125491725,-28080.0875170222,59327.4751878434,102070.0267428090,102070.0267428090,102070.0267428090,102070.0267428090,3491.5084356464,102070.0267428090
17734827201,20,-2,0,2583.9077619263,-18865.4663776145,97480.4323396794,-1728.6403522417,-54073.7192213303,5537.3119732749,102070.0267428090,-80213.3024490297,-32310.4428391512,20211.2379816256,86958.5746920990,56333.0780058983,102070.0267428090,92765.8756901782,-417.3763364206,75906.8016801827
17734827201,20,-2,0,-100458.1111061898,-27469.7315089897,-32877.0438094083,-2080.2259519406,-55905.4929718433,5414.0775398522,62736.1216081256,-82294.9276861050,-34736.0366977142,-4349.7325956590,-33169.8107626652,-67765.9067792187,102070.0267428090,-37010.7024448855,-1562.9893276942,-56420.1743797569
17734827201,20,-2,0,-99444.2377684181,5171.7456899264,-48099.7207767769,-1533.5069982922,-55391.6633027073,5778.1958672787,62431.3086350140,-59115.4774060973,-31452.1943437450,32106.4757373083,-8740.3486526430,-24104.5359340623,102070.0267428090,-2015.8953388377,2111.5091004724,-8403.0965998015
17734850654,21,-2,0,-929.1861678840,18724.8199700382,85629.5823420068,-1161.8203634418,-53618.1241491889,5931.5818534287,102070.0267428090,-52984.3088216819,-28540.0507923230,62235.4087161647,102070.0267428090,99555.3166727148,102070.0267428090,102070.0267428090,3895.1596100507,102070.0267428090
17734850654,21,-2,0,29070.4041937446,-9620.7910270542,102070.0267428090,-1296.0908978830,-52992.1569861327,5769.0822623583,102070.0267428090,-74623.4503608733,-31056.8780416645,33388.5251130575,102070.0267428090,87055.3930557192,102070.0267428090,102070.0267428090,628.5223793891,102070.0267428090
17734850654,21,-2,0,-81590.0165060615,-30712.1063521864,2468.9230269495,-2127.5461248851,-55998.1134800596,5390.8007358299,84728.8685846885,-85973.0155848344,-34913.8797544784,-4168.9449562637,-6059.8293779425,-44222.5815257210,102070.0267428090,-8231.1792113902,-1860.0028071422,-31171.0962117414
17734850654,21,-2,0,-102070.0389105058,-5147.5806440361,-69858.5924527061,-1692.1372617729,-55511.2717624768,5671.7650231684,43322.3666439724,-65070.0075357341,-32501.4756792714,18955.4099925297,-37820.1219729412,-55499.5299350427,102070.0267428090,-35094.2658598785,1058.8086421388,-43296.3521081650
17734850654,21,-2,0,-32528.1959414946,20017.4552420234,52412.4392387004,-1108.1729881494,-55213.1023518306,6219.0193554771,102070.0267428090,-52010.1143432499,-29288.7170101418,60998.5988372031,84853.9403403316,76669.1565569273,102070.0267428090,95768.6929183248,3980.4429970827,93617.6266354809
17734850654,21,-2,0,39481.9616696250,58.9281557135,102070.0267428090,-868.1895037106,-51114.2798323576,6087.4865528211,102070.0267428090,-66232.6553025598,-29198.9315752853,45350.1741579998,102070.0267428090,102070.0267428090,102070.0267428090,102070.0267428090,1845.2798939864,102070.0267428090
17734850654,21,-2,0,-54798.3542379238,-29464.6375708079,40306.9436819173,-1973.3570707447,-56111.1878866352,5524.8644194250,102070.0267428090,-86949.3759133009,-34658.4919658616,1396.2067073421,26964.6260784758,-10860.3751408915,102070.0267428090,27438.2171742183,-1706.3004608748,3177.2533298003
17734850654,21,-2,0,-102070.0389105058,-14973.1053378332,-73183.9996590225,-1854.9288775670,-55652.3927102293,5567.6095383640,36292.6623199700,-72093.3846573885,-33544.8313464450,7038.2095440816,-53105.3409019797,-74366.0549022808,102070.0267428090,-54311.9383897299,-93.3262346320,-66270.0222995031
17734879352,22,-2,0,-63578.1505636668,16321.7485182944,10102.5101442745,-1320.4384592257,-55272.5658862043,5944.4309412737,98630.6812234426,-52877.3669343050,-29967.1391142018,52307.2008288788,50314.1564246745,41438.0041077907,102070.0267428090,62828.8272902196,3750.0598254371,59710.0640790472
17734879352,22,-2,0,34499.9225408651,8664.5317337392,102070.0267428090,-787.5055060776,-51530.9504423624,6178.4644219662,102070.0267428090,-59582.5952871300,-28346.0368664812,54267.6966440817,102070.0267428090,102070.0267428090,102070.0267428090,102070.0267428090,2866.7458745756,102070.0267428090
17734879352,22,-2,0,-21539.8044623290,-23604.7599547568,74585.9616869618,-1892.8190854737,-54836.7919921875,5525.3024565107,102070.0267428090,-83708.7410507499,-33663.0405210799,11772.3926885583,62678.8360914832,28677.4727602413,102070.0267428090,66462.3570831833,-950.7473266542,43917.2696770397
17734879352,22,-2,0,-102070.0389105058,-22943.5551417013,-58496.9568734967,-2008.6190561376,-55826.7193026116,5461.1056880728,44804.8544894860,-78521.2016903473,-34354.5063961341,-1140.0523538256,-50500.8453970289,-76595.1891279406,102070.0267428090,-53314.7469643025,-1059.9889087306,-70183.2996101231
17734879352,22,-2,0,-87392.8154563162,10147.5549579131,-30489.8877051090,-1455.2930431143,-55345.0731915723,5839.0343513934,75569.7808135808,-56281.4139651881,-30811.4312613521,40876.9637749817,11602.5681440005,1805.8687239769,102070.0267428090,22121.8949106417,2823.0516752844,16215.6705373920
17734879352,22,-2,0,16146.6918641027,15062.9394434769,99539.3283190894,-1151.1127902376,-53412.1007065829,5952.6198012356,102070.0267428090,-55796.3974021288,-28480.4412455874,60395.5799503549,102070.0267428090,102070.0267428090,102070.0267428090,102070.0267428090,3615.0957322770,102070.0267428090
17734879352,22,-2,0,9242.0592957434,-16549.5521382135,100010.7657324943,-1686.3332703884,-54018.6360578129,5565.5531976010,102070.0267428090,-78734.3554032916,-31993.5716784882,23773.7692636275,89982.7827312603,64395.2600761146,102070.0267428090,96499.3266094519,-127.1402641029,79660.4023053952
17734879352,22,-2,0,-96120.8260643807,-28559.2514179096,-31108.3839023160,-2091.8826054970,-55935.6931953579,5411.6440004876,63590.4642728516,-83331.2504245149,-34792.3853017013,-4541.9335346741,-32925.2035534336,-63212.2557525041,102070.0267428090,-35322.7630385165,-1647.0559450439,-56834.1072579766
17734924630,23,-2,0,-102070.0389105058,2485.0938960272,-62144.6255301687,-1575.4003784536,-55421.8635262218,5750.7333755493,50956.0145997816,-60409.0739261316,-31712.4005403036,28716.2512100160,-23303.8771477191,-33969.2041085388,102070.0267428090,-16377.3427250784,1835.7404196773,-24309.7076378908
17734924630,23,-2,0,-10063.0503034777,19438.4432210069,74267.8859243133,-1172.6982844015,-54170.2333925299,5980.3256469014,102070.0267428090,-52499.6329541336,-28620.4914360195,61774.5328636021,97259.9293378541,93062.3051201787,102070.0267428090,102070.0267428090,3910.4544049571,102070.0267428090
17734924630,23,-2,0,31748.4534259900,-7077.4260309420,102070.0267428090,-1184.4036087452,-52673.6796894890,5850.4111479229,102070.0267428090,-72746.7169705996,-30690.1193240273,36694.5735137286,102070.0267428090,92165.8743921421,102070.0267428090,102070.0267428090,912.7962802635,102070.0267428090
17734924630,23,-2,0,-75673.2549073631,-30513.6025462169,5255.8974811539,-2122.2653444639,-56013.3961072692,5400.2672039581,86661.5612126510,-86267.8997173384,-34847.2616143728,-2890.6797342263,-3987.9626337192,-36982.3760466817,102070.0267428090,-4125.3846016375,-1822.8426610449,-28841.1526179035
17734924630,23,-2,0,-102070.0389105058,-7743.9967982964,-78678.0189670014,-1740.5403597346,-55556.0853898757,5639.9708313701,33936.3878302073,-66896.4153319481,-32779.2276946487,15807.6389921315,-48680.4971138327,-61838.2185887734,102070.0267428090,-45253.5018067416,764.3017082363,-55303.5326746187
17734924630,23,-2,0,-41328.5556748683,19108.7594755893,35849.5634724658,-1218.4123213653,-55351.7289217344,6097.2815487635,102070.0267428090,-52401.0137713837,-29608.3745733773,58850.0512676016,72612.3004237965,67983.9154031954,102070.0267428090,86730.7102336958,4016.2038580453,84188.4768333880
17734924630,23,-2,0,38771.8548830381,2467.8522696291,102070.0267428090,-848.9037042462,-51329.3560413999,6111.9314557383,102070.0267428090,-64490.6304838129,-28979.2924799344,47958.4051458752,102070.0267428090,102070.0267428090,102070.0267428090,102070.0267428090,2146.1992041146,102070.0267428090
17734924630,23,-2,0,-46052.1772585026,-28041.1630548856,45536.4007578750,-1931.7922183976,-56074.2954298680,5584.0237613782,102070.0267428090,-86540.5778031405,-34500.7377765522,4004.0969997065,32230.2820524817,-757.3174502599,102070.0267428090,35033.2813634019,-1544.2632422837,9281.4582980560
17734973260,24,-2,0,-102070.0389105058,-17285.5639513365,-76461.5026429470,-1896.3233821587,-55699.6885477801,5540.3417297838,31970.4043837373,-73955.9670162572,-33771.9657430389,4544.1358877991,-58320.5131018672,-76426.0581421017,102070.0267428090,-58384.1014854639,-343.2263919815,-73088.0573695736
17734973260,24,-2,0,-70585.7705179356,14709.2488322277,-6895.3121125930,-1358.4868471910,-55274.1233513977,5911.1522904630,89973.4501077971,-53591.5012285403,-30160.1431212073,49476.4470015055,36335.6142897550,30646.9240003059,102070.0267428090,49997.3339347988,3492.9320561747,44810.1352699072
17734973260,24,-2,0,30979.1872974500,10592.3572829725,102070.0267428090,-844.8396935073,-51932.8494684242,6185.1323198252,102070.0267428090,-58320.6226111386,-28291.5985908954,56391.7384722817,102070.0267428090,102070.0267428090,102070.0267428090,102070.0267428090,3142.7092385199,102070.0267428090
17734973260,24,-2,0,-12310.8984468512,-21845.0919756166,78990.9356261970,-1837.8941020149,-54567.7763831291,5519.0482603437,102070.0267428090,-82536.8580020355,-33210.7063916871,14797.8053297050,68435.5073030821,38838.6433708992,102070.0267428090,74230.1295610717,-697.0630155927,50793.1743132001
17734973260,24,-2,0,-102070.0389105058,-24726.0375523846,-58344.0454275228,-2017.8665057231,-55838.9965087059,5463.5270597406,44239.9083259968,-80016.4047790409,-34494.2037233583,-2636.3383675364,-51434.2780911041,-75039.3300705847,102070.0267428090,-52977.0568743754,-1244.4390248696,-72988.5986157428
17734973260,24,-2,0,-91623.7061571055,8622.2976580668,-45419.7490484334,-1468.0569570816,-55343.3088755329,5834.6418128403,64801.6246469104,-57274.1033427910,-31020.5209635575,37767.1681563678,-1907.8096879595,-8482.2839707252,102070.0267428090,9159.3311250442,2594.8221859765,827.9874334076
17734973260,24,-2,0,10757.0105563806,16547.4349589663,91508.7579252191,-1145.2114572785,-53500.7545456348,5951.0501683454,102070.0267428090,-54919.4349890089,-28602.5805862961,61414.6853977604,102070.0267428090,102070.0267428090,102070.0267428090,102070.0267428090,3755.1580904059,102070.0267428090
17734973260,24,-2,0,16311.8561807773,-14514.9428816621,102070.0267428090,-1621.2360923856,-53930.2012373037,5607.6169255179,102070.0267428090,-77616.8984624662,-31742.2965713976,26902.0111106249,93673.4885315951,71708.5690776662,102070.0267428090,100901.3681337527,121.2632665374,84073.8571293159
17734986064,25,-2,0,-91679.4828793418,-29511.3371912144,-28447.0044147180,-2100.6433472095,-55949.8685621566,5412.2402176319,65477.8322301486,-84305.4205675533,-34851.5324759576,-4760.1003387095,-30544.5936700249,-58524.8208992212,102070.0267428090,-31227.6516665744,-1744.6773766544,-55755.5261085006
17734986064,25,-2,0,-102070.0389105058,39.1678160731,-73574.3880438897,-1602.1206406768,-55443.0596540874,5735.6575991857,40898.7682876884,-61747.3015581124,-31956.7278925083,25560.4373620178,-34292.3903038530,-42362.1285137963,102070.0267428090,-26976.0150427020,1586.5581564402,-37335.3974346057
17734986064,25,-2,0,-17452.9062857424,20056.7690704583,62307.9403569262,-1124.2830187430,-54786.7462551547,6105.2878932730,102070.0267428090,-52413.7290145637,-28901.9180958373,61738.3948040380,90645.5693449028,87305.5609023989,102070.0267428090,102070.0267428090,3929.3265027295,101289.4203208300
17734986064,25,-2,0,35064.1143071512,-4601.1780505050,102070.0267428090,-1061.1570076256,-52266.5972245806,5950.2836034456,102070.0267428090,-70757.5053908946,-30256.4017707736,39812.5458246075,102070.0267428090,97202.5708150307,102070.0267428090,102070.0267428090,1197.5568890108,102070.0267428090
17734986064,25,-2,0,-69091.1028079022,-30290.1914648509,10242.4629931320,-2101.4707505935,-56016.1216713575,5417.9103643514,90351.9141497779,-86580.5000164166,-34790.7183272366,-1703.5748967865,1303.9147269401,-29241.0439739895,102070.0267428090,2672.2817439513,-1802.0724025682,-25031.8726120292
17734986064,25,-2,0,-102070.0389105058,-10325.7752132787,-85506.6034302174,-1763.0140957665,-55580.6032989739,5631.1735865671,27126.8214771256,-68740.8313194602,-33047.9026081961,12515.4009273544,-56571.2728389042,-67989.3056928880,102070.0267428090,-53238.2608220735,471.1940594684,-66536.3488475636
17734986064,25,-2,0,-48862.5988644849,18436.5915676963,20397.3185691388,-1257.5801374383,-55279.7326596331,6013.8719870423,102070.0267428090,-52322.5929653598,-29686.4668515870,56653.7454879701,61199.3658347816,58250.3298265925,102070.0267428090,76392.5848081418,4074.4871258272,72274.9510293805
17734986064,25,-2,0,39162.6569695974,4944.7816410881,102070.0267428090,-813.2645202518,-51460.5238131512,6156.7450831372,102070.0267428090,-62673.8473357857,-28727.7375158169,50621.8653096299,102070.0267428090,102070.0267428090,102070.0267428090,102070.0267428090,2416.3707443712,102070.0267428090
17735014346,26,-2,0,-36630.9364593447,-26843.1924641828,52265.4899641698,-1892.0281851802,-55925.6305100853,5675.0259659170,102070.0267428090,-86160.7023083282,-34357.4874818557,6367.5017598074,39401.5696967158,9019.6946363041,102070.0267428090,43678.6854777355,-1441.3488625552,15612.1771103677
17735014346,26,-2,0,-102070.0389105058,-19568.7957570711,-78573.6322959573,-1932.9116465053,-55734.6463407524,5516.6877271600,29914.7328439854,-75704.4163789267,-34002.6896101955,2009.8358258199,-61613.9922717202,-78652.8318345779,102070.0267428090,-61368.2412989872,-652.0060342573,-79789.9031026818
17735014346,26,-2,0,-76078.4027084766,13447.4100009013,-21873.3697030331,-1378.3445284060,-55280.5235599266,5898.7655750972,81798.9723636019,-54181.5006797880,-30334.3237012277,46914.2220753176,24232.2237445223,20497.7142356249,102070.0267428090,38324.7650309759,3277.9410210101,30199.3961111581
17735014346,26,-2,0,28345.3554754591,12333.6642076069,102070.0267428090,-1020.1275339386,-52699.1466789394,6102.5988322752,102070.0267428090,-57153.0469270996,-28233.6195155340,58304.9992884180,102070.0267428090,102070.0267428090,102070.0267428090,102070.0267428090,3329.7754094758,102070.0267428090
17735014346,26,-2,0,-3993.9248051625,-20418.1740014933,83608.4427258384,-1787.4224955934,-54345.3265498121,5528.6972439243,102070.0267428090,-81443.1889084990,-32809.7321105838,17573.2204719276,73814.6392176587,47614.7650522017,102070.0267428090,81468.4490471035,-544.1028988315,57179.1953075721
17735014346,26,-2,0,-102070.0389105058,-26281.1057094470,-56601.3027146633,-2033.1734683263,-55865.7411063228,5458.7451548892,45873.3972890832,-81185.0390527035,-34620.9059503756,-3731.0295476060,-50539.2709835958,-72834.7502571136,102070.0267428090,-50995.4987759720,-1424.7034533015,-74452.6524005697
17735014346,26,-2,0,-94928.7933097275,7139.3474400739,-57204.9056509589,-1480.7965356552,-55357.8006024491,5828.4727905511,55940.9983111727,-58102.0907761986,-31216.1166899863,34981.6659934790,-12973.5390481318,-17460.9734687360,102070.0267428090,-1470.9407012286,2360.3871712889,-12556.0775378335
17735014346,26,-2,0,5477.2765571505,17685.2727919701,83603.0767715395,-1162.5625929480,-53606.9177004150,5942.6909606280,102070.0267428090,-53980.3199805174,-28582.1388556336,61968.8874849550,102070.0267428090,102070.0267428090,102070.0267428090,102070.0267428090,3803.6828653358,102070.0267428090
17735046767,27,-2,0,22465.4376627406,-12314.8407806218,102070.0267428090,-1537.5710090311,-53762.7980644137,5654.6329060417,102070.0267428090,-76356.7996117855,-31483.2463060372,30098.8300969165,97802.7302931255,78726.8114312614,102070.0267428090,102070.0267428090,363.6924580377,89033.7388821613
17735046767,27,-2,0,-86818.2081415496,-30159.7172518185,-23189.9753377595,-2103.3567436010,-55965.9542573565,5417.1316317547,69428.5738792865,-85092.7070550881,-34874.8214476767,-4511.9644973992,-25963.6383316396,-52553.4750125751,102070.0267428090,-25126.5981317958,-1799.5780247195,-52602.0606259892
17735046767,27,-2,0,-102070.0389105058,-2633.5884680544,-82502.6911093567,-1642.8702573368,-55475.3283860619,5710.9936777256,32601.5063148528,-63366.8098375491,-32228.8584319534,22226.7439541650,-43942.6636603092,-50284.7105983630,102070.0267428090,-36403.9115720222,1316.0580883694,-49009.5481390155
17735046767,27,-2,0,-25288.1121394235,20093.9170488588,48990.3475134289,-1103.8291203837,-55229.6504195098,6232.9148652489,102070.0267428090,-52378.6495446231,-29255.0611607296,62059.3299754399,83987.7463389000,81800.4203195238,102070.0267428090,97259.6859839176,3986.3808331323,93547.5407017808
17735046767,27,-2,0,38278.1505844472,-1952.5868122680,102070.0267428090,-953.4485553489,-51863.8951305286,6040.5192430845,102070.0267428090,-68442.2238717283,-29743.9470513785,43169.6498811477,102070.0267428090,102030.1532003202,102070.0267428090,102070.0267428090,1535.2348112411,102070.0267428090
17735046767,27,-2,0,-60941.6053452844,-29992.5939359554,18202.2417268864,-2083.0366899067,-56041.0289467541,5429.7130302696,95140.8275945641,-86831.0693970914,-34714.7675636677,-118.7445532951,8967.5560554178,-19822.8816021277,102070.0267428090,12152.8522328180,-1757.6846445581,-17588.5517699245
17735046767,27,-2,0,-102070.0389105058,-12985.3052109596,-89417.6783877124,-1816.5884648779,-55625.3317524951,5596.4713152281,22572.9270964745,-70632.2511197992,-33323.9754814118,9372.3144902330,-62177.8920132826,-72736.7881299921,102070.0267428090,-58480.0802780033,162.2440694371,-74331.1822831863
17735046767,27,-2,0,-55895.3329449962,17747.9729336987,6373.0258941650,-1300.9701443090,-55257.4171036598,5959.8717485420,97313.3820299972,-52349.9094447273,-29786.3636425033,54712.9248385300,50617.1442432626,49119.9943230774,102070.0267428090,66713.9485503913,3904.0298610346,60640.2601657675
17735127141,28,-2,0,39258.6114267431,7225.2148765534,102070.0267428090,-803.2261703729,-51613.1067313109,6171.5775055644,102070.0267428090,-61037.4259577651,-28518.0394287703,53089.1578652052,102070.0267428090,102070.0267428090,102070.0267428090,102070.0267428090,2697.3471994066,102070.0267428090
17735127141,28,-2,0,-27310.6388730298,-25552.0416512100,59658.9110816035,-1908.7952714022,-55621.2677417562,5693.0584926086,102070.0267428090,-85543.3985454099,-34190.1816505402,8956.0210788296,47517.7398377355,19229.8037235839,102070.0267428090,53709.4427138451,-1255.7306475213,24937.0740860817
17735127141,28,-2,0,-102070.0389105058,-21400.6425137650,-76550.2173204830,-1975.9731255617,-55791.7980127297,5484.9787092394,31233.3218132939,-77182.2561642539,-34186.2393167696,184.4014453517,-61234.6643232650,-78172.9500395779,102070.0267428090,-59701.2668342442,-862.8113817148,-80879.2404961493
17735127141,28,-2,0,-80131.3773463208,12234.6191554682,-32008.3189270376,-1404.9917844483,-55304.2505687313,5877.9709812268,75345.9925336133,-54946.0092388702,-30507.6282070769,44383.5114839012,15152.0069842209,12264.2109941416,102070.0267428090,30354.0353700809,3120.6735395736,19933.8875002434
17735127141,28,-2,0,26015.3997139244,13949.9845504761,101342.9825222446,-1116.1671649621,-53187.3146754758,6008.1288341418,102070.0267428090,-56434.0090510446,-28291.0632122352,59815.7161905608,102070.0267428090,102070.0267428090,102070.0267428090,102070.0267428090,3530.2017115433,102070.0267428090
17735127141,28,-2,0,5479.9169473611,-18678.2176912063,90287.2428411640,-1747.4759469236,-54159.1972915115,5527.1154433373,102070.0267428090,-80163.3175504811,-32371.4151679310,20671.1890892296,80969.2084464582,56702.8786477412,102070.0267428090,89927.1276859922,-338.5904994920,67103.0349916985
17735127141,28,-2,0,-98571.6922292450,-27521.2738727317,-48225.0967248405,-2069.9442481252,-55904.7750777308,5428.9464653698,52810.5054402630,-82286.7996646273,-34706.2380081949,-4168.8232792955,-43976.2100004500,-67933.3586228961,102070.0267428090,-43017.9917079465,-1525.6588338414,-68900.4836694740
17735127141,28,-2,0,-98183.7738868328,5026.9379300366,-63701.7743633879,-1525.5493245700,-55390.1910113917,5790.5947503413,51137.5566363798,-59177.7151753466,-31446.3903523605,32003.9020530908,-20156.8240414334,-25896.4726451770,102070.0267428090,-8831.1075032453,2119.7709666152,-21355.6220355201
17735139808,29,-2,0,159.1048036568,18756.5168202619,77058.5106875646,-1167.6121871295,-53896.9104187962,5954.7491481796,102070.0267428090,-53046.1937277234,-28567.1239177541,62227.8404087408,100336.7870011682,97847.5560882212,102070.0267428090,102070.0267428090,3886.2285205826,102070.0267428090
17735139808,29,-2,0,30247.2638304595,-9506.6336954614,102070.0267428090,-1377.5414604157,-53356.7133506448,5744.4913470791,102070.0267428090,-74546.7452001015,-31092.8944242604,33795.1330377898,102070.0267428090,85876.3188981824,102070.0267428090,102070.0267428090,685.4306974300,97035.9342070405
17735139808,29,-2,0,-79806.3416610896,-30498.0643973740,-11193.4171706322,-2105.1818981245,-55983.1958837546,5417.2411410261,77617.6406919724,-85764.3030812304,-34861.4856519588,-3709.6752396817,-16315.5186575211,-45394.4280713449,102070.0267428090,-14159.3297743148,-1800.4419311939,-42851.6471246801
17735139808,29,-2,0,-102070.0389105058,-5355.3927380751,-84425.0655304133,-1679.5680309548,-55511.6489610783,5688.4834386031,30531.5377313339,-65165.2927695545,-32501.1106483667,18874.4096347794,-48989.8608055560,-58127.3387471062,102070.0267428090,-41719.5402768799,1071.6090591965,-55053.0849709121
17735139808,29,-2,0,-31392.3657784666,20002.5498134153,40204.0049667952,-1150.0663683108,-55326.4322800395,6185.3878414585,102070.0267428090,-52175.1083121689,-29425.4089162507,61071.4590057789,77762.0225824735,74745.9060616994,102070.0267428090,92874.1438565087,4058.5961137764,88108.0326755687
17735139808,29,-2,0,41779.0403143441,459.3305550661,102070.0267428090,-891.0282706472,-51525.9373512713,6094.3978046165,102070.0267428090,-66303.1671056488,-29275.7219099349,46027.9635418250,102070.0267428090,102070.0267428090,102070.0267428090,102070.0267428090,1894.6564076939,102070.0267428090
17735139808,29,-2,0,-52280.8455975603,-29551.6001000015,30175.1093882995,-2024.4979004916,-56102.1351201989,5470.0367775409,101608.7493562513,-86984.2972031827,-34623.8748684004,1621.0049061460,19105.7297190804,-12369.2303854204,102070.0267428090,23488.6314562786,-1677.1101561966,-6404.7470797824
17735139808,29,-2,0,-102070.0389105058,-15313.7400103914,-86810.1896293432,-1849.7697741141,-55659.9853530468,5573.1215050248,24364.5961182591,-72289.0655576951,-33555.8674474635,6766.2128493016,-63229.7894036260,-77621.4248456844,102070.0267428090,-60156.1683476667,-91.0508753261,-77189.4472730763
17735160979,30,-2,0,-61834.6656213011,16685.8546780241,-2187.8735657332,-1312.3834439289,-55250.6518642262,5946.9983253034,92893.0159542811,-52595.6117466730,-29911.2042119067,52670.7351068578,42758.2843869577,39176.7471625183,102070.0267428090,58841.8624076398,3758.4433685481,51661.1813014583
17735160979,30,-2,0,37954.9643891331,9060.6876069006,102070.0267428090,-790.0972255009,-51715.4735646823,6195.8642284230,102070.0267428090,-59598.9365039633,-28359.1536436563,55098.6286601204,102070.0267428090,102070.0267428090,102070.0267428090,102070.0267428090,2959.7192459997,102070.0267428090
17735160979,30,-2,0,-18813.5346475742,-23909.8771202889,68181.3484518444,-1878.1935138925,-55047.7798550973,5603.1027099966,102070.0267428090,-84237.2692976480,-33813.4575892051,11909.4982963592,56981.5310726834,27745.5245251785,102070.0267428090,63747.3788910803,-971.7487713706,35960.9100660925
17735160979,30,-2,0,-102070.0389105058,-23060.8517390745,-70107.8112190336,-1974.8780328476,-55802.0188780610,5497.7547909035,36182.2769743923,-78607.9208656044,-34320.0718141251,-1243.9888200871,-58394.7360524871,-78461.4339635530,102070.0267428090,-57122.9075420691,-1028.3894000814,-79405.7567462847
17735160979,30,-2,0,-85462.1183306327,10602.6024836974,-40630.7504297694,-1413.2536505911,-55313.5101860135,5878.9930677599,69223.8767156341,-56088.0084241875,-30727.5958302420,41262.4485780293,5484.5406721538,1013.6786546225,102070.0267428090,20001.9779316646,2898.9902711564,8865.1283835623
17735160979,30,-2,0,19604.6539596083,15315.8815250323,96076.4018032801,-1118.3938534807,-53425.4730053913,5977.8921075368,102070.0267428090,-55841.9045882466,-28488.8856271825,60858.5729821647,102070.0267428090,102070.0267428090,102070.0267428090,102070.0267428090,3673.6588570858,102070.0267428090
17735160979,30,-2,0,11900.0804990182,-16660.5580363292,96197.3852127906,-1668.1790667285,-54037.2891370425,5588.7083246550,102070.0267428090,-78846.6754126642,-32001.7362030564,23913.8681248468,87035.3163559613,64227.6257169850,102070.0267428090,95827.7914217938,-96.9035374979,74791.1942292744
17735160979,30,-2,0,-94976.0526441878,-28618.7149522833,-40186.2644648274,-2064.9554924278,-55915.1297877271,5442.5742858115,58335.6862198054,-83363.1176224942,-34769.1450007695,-4520.0438480897,-38742.1900381838,-63733.9579214846,102070.0267428090,-37120.5280764094,-1629.3154430760,-64379.9531135114
17735173186,31,3,0,-101858.8685321437,2577.4953857006,-71196.7227431123,-1550.4322645729,-55404.8530860634,5776.4315512394,44404.3547485589,-60347.3228647551,-31681.6040996448,28818.5815402970,-29014.4206206622,-34523.1141710096,102070.0267428090,-18061.8386732465,1865.2957552602,-31441.8152983550
17735173186,31,3,0,-7424.9719552957,19903.9427983622,69386.4249774918,-1148.4724000270,-54333.6942316493,6023.6426475911,102070.0267428090,-52477.4390751286,-28636.4919573417,62247.8806054082,95074.6839946346,92977.0339008435,102070.0267428090,102070.0267428090,3960.5731481708,102070.0267428090
17735173186,31,3,0,35235.9586893816,-6884.3003469682,102070.0267428090,-1192.5437979197,-52778.0298574425,5855.1200465933,102070.0267428090,-72708.5834087565,-30670.9308661376,37122.7060941407,102070.0267428090,92859.1045832356,102070.0267428090,102070.0267428090,958.1817894130,102070.0267428090
17735173186,31,3,0,-73864.7822962661,-30849.7716740412,-1530.4407386928,-2112.1539884040,-56001.2649135367,5413.9193597935,83653.0129993008,-86482.1485229967,-34868.6159222970,-3121.6834584099,-8703.4318604822,-36994.5802465951,102070.0267428090,-4799.0978070270,-1852.3614935374,-35237.9785270542
17735173186,31,3,0,-102070.0389105058,-7897.2246043877,-87720.4550286675,-1730.7940345794,-55547.1543004077,5652.2967082517,27107.2679883311,-66940.3407174789,-32787.6964116375,15494.9048483882,-54913.7648422894,-63249.9269418679,102070.0267428090,-47502.4085397386,754.3850353256,-62640.3253310385
17735173186,31,3,0,-39144.4175920598,19704.0883780453,29606.6710958221,-1222.2573135613,-55328.5981300740,6076.1584270789,102070.0267428090,-52048.1870666088,-29547.0980521770,59266.2230020367,69447.5676540271,67951.6101681305,102070.0267428090,86275.1029938575,4114.5188483747,81238.1388816388
17735173186,31,3,0,42099.0020700002,2688.4526130290,102070.0267428090,-847.7964438353,-51415.4546641190,6122.9918921504,102070.0267428090,-64521.7797876796,-28966.2000381529,48454.1536175323,102070.0267428090,102070.0267428090,102070.0267428090,102070.0267428090,2163.7328552365,102070.0267428090
17735173186,31,3,0,-44773.8146948907,-28611.1588125563,39755.7348481412,-1947.2938641500,-56106.8683542630,5551.8158678879,102070.0267428090,-86833.6611165147,-34507.1988235652,3660.8462723313,27952.8742467383,-1011.5493076785,102070.0267428090,34144.9178183589,-1598.3121515712,3374.2361736669
17735222215,32,3,0,-102070.0389105058,-17361.4173733307,-84834.0583237229,-1897.5036487505,-55701.5380376972,5541.2056362583,26230.9747985365,-73918.4175038616,-33768.4857817475,4401.5669841247,-63917.4954603618,-77383.7167205514,102070.0267428090,-60210.4119401034,-368.7542199161,-79576.0314956249
17735222215,32,3,0,-68750.0300982583,15195.0927986709,-12976.7634877899,-1338.6048305823,-55262.9169026238,5929.0266370959,87464.6048675715,-53287.6373357810,-30087.7818282012,50018.8464227817,33291.0010230217,31353.9766949902,102070.0267428090,50184.6677950848,3531.0777857146,41097.4302737166
17735222215,32,3,0,33768.5466202317,10663.1976138757,102070.0267428090,-860.5360224089,-52038.2095552140,6188.3810948769,102070.0267428090,-58315.2201537492,-28276.8270069523,56750.8437086172,102070.0267428090,102070.0267428090,102070.0267428090,102070.0267428090,3153.6358302669,102070.0267428090
17735222215,32,3,0,-11143.2984274185,-22172.1353308236,75347.4039864447,-1842.8098515314,-54641.3301104238,5532.3475529712,102070.0267428090,-82714.2143509267,-33286.5476459845,14833.7365384232,65653.4851014846,39012.7266093451,102070.0267428090,73805.6594574034,-713.7814310274,46645.0117831100
17735222215,32,3,0,-102070.0389105058,-24805.0910786432,-64741.9907647812,-2017.5258102120,-55842.8171655083,5466.5203131590,40777.6997043001,-79938.7870410073,-34485.8810187314,-2571.0708417781,-55592.3816294986,-75110.0852276101,102070.0267428090,-53314.3575980042,-1241.4701068448,-77507.1093340328
17735222215,32,3,0,-90629.5201527933,8823.8190528484,-51059.0506564782,-1454.3074596717,-55337.1520209405,5848.4764841280,61840.3236003238,-57119.6465993206,-30979.6009991419,38037.6925598323,-5387.4546192036,-8153.7318211121,102070.0267428090,9430.9627889195,2636.2531936586,-2769.0149336937
17735222215,32,3,0,12769.4137662301,16738.8815007785,89238.5212196914,-1133.6521452967,-53506.2786799924,5966.7464972470,102070.0267428090,-54746.1304831598,-28567.3186009032,61836.3812665531,102070.0267428090,102070.0267428090,102070.0267428090,102070.0267428090,3801.1154813061,102070.0267428090
17735222215,32,3,0,18617.4157101820,-14473.8160664006,101331.5327195342,-1607.5596011566,-53909.4553142206,5618.9572189569,102070.0267428090,-77555.4759289040,-31718.4113825342,27300.6126908477,92727.6326190637,72746.4736166631,102070.0267428090,101811.5848622897,156.0628794511,82921.9534387848
17735234693,33,3,0,-90726.5088641690,-29802.2911576445,-32755.6466982059,-2091.5297422891,-55945.0136511242,5425.6125164403,63708.2475780977,-84420.2836255619,-34854.0998599873,-4786.5894146930,-33566.2586605503,-58011.1859132344,102070.0267428090,-30413.1338735499,-1730.2221528287,-58771.7521385460
17735234693,33,3,0,-102070.0389105058,12.5448954245,-78942.5081928416,-1595.3067304559,-55431.4516713183,5745.5986074900,37759.0523025869,-61694.8222817150,-31945.0469035583,25571.5586369140,-37944.3176544130,-42627.4451430206,102070.0267428090,-26975.6378441005,1611.0882332353,-40695.9084462563
17735234693,33,3,0,-15226.7044750169,20621.1190168032,59501.2907369591,-1101.1643947794,-54836.4269612828,6139.0167488662,102070.0267428090,-52140.1018484093,-28872.8616358241,62440.3857368440,89727.3097687658,87894.1245654214,102070.0267428090,102070.0267428090,3997.5751142094,100482.5316737134
17735234693,33,3,0,38555.7565874627,-4454.6668130600,102070.0267428090,-1049.6220310374,-52248.3335116494,5963.8992561904,102070.0267428090,-70632.4823060388,-30183.6754468628,40281.9025618557,102070.0267428090,98251.4627842588,102070.0267428090,102070.0267428090,1248.0528308260,102070.0267428090
17735234693,33,3,0,-67387.4549049348,-30723.4709810190,7698.8424753864,-2106.5203447750,-56023.9576681115,5416.3894022485,89861.5194647229,-86804.5194826237,-34815.4187517871,-1859.7107824185,-564.8123188241,-28575.0815914763,102070.0267428090,4703.2163560622,-1818.1702654649,-26268.6094848098
17735234693,33,3,0,-102070.0389105058,-10300.5394100679,-89160.4654445722,-1767.1024418990,-55581.4185346611,5629.3362643468,25752.1029223728,-68680.1996861914,-33040.3099653786,12577.1033179435,-58942.1485648545,-67765.2132204998,102070.0267428090,-51707.8079156839,477.3265786672,-67919.9984917845
17735234693,33,3,0,-46625.5678035870,18872.2802878354,18734.6149659806,-1257.7383174970,-55279.7934981172,6012.5092049981,102070.0267428090,-52137.5709674702,-29652.1904496367,57139.3339327801,60714.3614394192,59514.7847127358,102070.0267428090,78591.5796487712,4113.8374573526,72521.5172378006
17735234693,33,3,0,41684.3147945775,4907.8891843209,102070.0267428090,-801.1454942161,-51428.8391306243,6168.4625751777,102070.0267428090,-62731.5708895138,-28715.2899619670,50783.7443481623,102070.0267428090,102070.0267428090,102070.0267428090,102070.0267428090,2445.1230119638,102070.0267428090
17735268762,34,3,0,-35521.1208321241,-27092.6667521436,50331.1668648330,-1887.4044603875,-55926.1172179582,5682.6794472186,102070.0267428090,-86261.0371363302,-34372.2468981019,6357.8284408332,37920.4568009432,9603.8414253799,102070.0267428090,45617.9608296791,-1422.1482369686,15336.2989203011
17735268762,34,3,0,-102070.0389105058,-19502.5913186574,-80790.5258186133,-1920.5127634427,-55728.3313061013,5529.1717841004,29970.0593614393,-75646.0357695702,-33992.6512603166,2209.3252152320,-63060.1473745205,-77857.1739716289,102070.0267428090,-58858.2522952603,-622.8157295791,-79723.3823041508
17735268762,34,3,0,-74901.3848917030,13594.4931200970,-23317.2737819212,-1364.0353169423,-55270.0228375684,5911.6389983359,82069.8739656679,-54145.8736634904,-30314.3686784381,47069.3115390228,23481.0874842484,21531.4087515211,102070.0267428090,40941.4038973560,3304.5152708714,30723.1667885984
17735268762,34,3,0,30403.4727222725,12502.3206532697,102070.0267428090,-992.3608497887,-52595.1615418905,6123.3325876614,102070.0267428090,-57090.8456609407,-28208.4932215947,58487.3322253097,102070.0267428090,102070.0267428090,102070.0267428090,102070.0267428090,3366.2906676415,102070.0267428090
17735268762,34,3,0,-1451.9590941848,-20317.6444903422,83827.8871380402,-1786.2665643952,-54299.7950283006,5521.3966258305,102070.0267428090,-81338.5710512154,-32745.7056899015,17858.0784222495,74259.1738533881,49228.0069677746,102070.0267428090,84601.2416127127,-537.6540195153,59160.2180273153
17735268762,34,3,0,-101691.3315145886,-26453.7044888804,-56566.3814247814,-2046.3875870760,-55876.2296609841,5448.0010785945,47912.4842580654,-81346.5773957249,-34638.3665953165,-3697.5440459493,-50069.0990106605,-71318.8742515178,102070.0267428090,-46812.8408253889,-1423.2433296827,-72822.4122125351
17735268762,34,3,0,-94489.3326035733,7163.4273120865,-57962.9896661187,-1483.2544104135,-55360.3071479946,5827.0856731133,57347.1095237287,-58117.7627697065,-31222.6750785739,34983.3086325501,-12905.8623184026,-16546.1086800126,102070.0267428090,1745.9428171239,2374.9640720828,-11506.8083700039
17735268762,34,3,0,8037.1166147611,18107.7717287531,83634.3964231617,-1140.9284279968,-53579.7594011062,5961.7942446401,102070.0267428090,-53703.4805424019,-28530.5356534075,62407.4356138474,102070.0267428090,102070.0267428090,102070.0267428090,102070.0267428090,3869.7534590844,102070.0267428090
17735285978,35,3,0,26231.1938170793,-12148.7638866855,102070.0267428090,-1494.2540083414,-53640.9750838224,5685.4658497911,102070.0267428090,-76269.5450578682,-31424.7440197125,30516.1942656402,99197.8419077536,80653.3958754187,102070.0267428090,102070.0267428090,411.4750034614,91315.1090302820
17735285978,35,3,0,-85451.3864220348,-30475.8948537626,-21753.1893615129,-2100.0836331557,-55966.1367728089,5423.9212065819,72245.2253460420,-85258.6987751467,-34875.7826957257,-4539.6338399746,-24421.3462562413,-50827.0491811552,102070.0267428090,-20166.9840682805,-1787.9700419504,-49932.5409492166
17735285978,35,3,0,-102070.0389105058,-2561.6652121340,-81506.9598075481,-1628.8530705968,-55463.3432046913,5725.8261001528,36543.9495947574,-63255.0982130177,-32196.1638305902,22400.3283170411,-42540.3487691620,-48779.3109797318,102070.0267428090,-31791.2107126258,1359.2899151813,-46311.7385671297
17735285978,35,3,0,-22299.6406258312,20485.0233278386,51144.5043912658,-1080.5888194518,-55125.9208040943,6231.2600584809,102070.0267428090,-52013.1684351524,-29112.4314185710,62251.9689515407,85278.5807917554,83019.8060566349,102070.0267428090,99791.8080281655,4024.4657241881,95253.7803241715
17735285978,35,3,0,41198.1788034105,-2005.1147594526,102070.0267428090,-936.1095873762,-51698.3657829493,6060.2674150281,102070.0267428090,-68365.0685061741,-29666.7551827338,43263.0004511733,102070.0267428090,102070.0267428090,102070.0267428090,102070.0267428090,1556.9663177668,102070.0267428090
17735285978,35,3,0,-59562.9809598515,-30157.7825880236,20351.2273335735,-2067.0726716750,-56062.5901055243,5441.5887023688,97631.3726187680,-86862.8514211929,-34710.1073357846,-63.9777498950,10728.1122764261,-18122.3486295470,102070.0267428090,17439.7286700831,-1754.2046832667,-13628.7086835631
17735285978,35,3,0,-102070.0389105058,-12929.0782839408,-86782.5081190710,-1806.7204627545,-55621.0608909102,5604.1734673170,28165.8697796239,-70495.1455119983,-33305.8091100552,9624.0398021060,-60072.8561275200,-70802.2216767189,102070.0267428090,-52977.0690420722,185.8128981831,-70217.9775460685
17735285978,35,3,0,-54415.7410113264,17678.7874095635,8986.9513641536,-1286.8069452071,-55261.9799899684,5975.7749282896,99794.0103812904,-52293.8772008577,-29780.3771356664,54860.4459948113,52418.5839255960,50775.0931157212,102070.0267428090,70778.9448726966,3968.5916603771,63951.8205330993
17735329618,36,3,0,40628.9252752460,7125.4640979989,102070.0267428090,-781.2513099106,-51507.1260919831,6187.9917285786,102070.0267428090,-60874.5370003964,-28474.6372542029,53123.1787455221,102070.0267428090,102070.0267428090,102070.0267428090,102070.0267428090,2717.3995637708,102070.0267428090
17735329618,36,3,0,-26136.2249433762,-25500.2194304411,60972.0367550386,-1902.8696030494,-55419.0284528621,5675.2571521566,102070.0267428090,-85320.9730474866,-34137.2521693605,9253.0953967618,48820.7298197171,20835.2583131901,102070.0267428090,57565.6778617592,-1222.3789905296,28814.0673247757
17735329618,36,3,0,-102070.0389105058,-21652.2826517602,-75283.3288949751,-1958.2447912906,-55776.7952425471,5504.7147134863,34818.7405330198,-77327.4654581389,-34198.6503675290,107.9518062131,-61025.2339255485,-77451.1622640409,102070.0267428090,-56662.9442667683,-887.8038309891,-78245.7372019727
17735329618,36,3,0,-80797.1085425945,12130.0256335782,-32501.8042070856,-1390.5608960163,-55293.2631385002,5892.1098449351,76809.7421260196,-54998.6588630231,-30529.2015335439,44176.3686131874,14141.5771046501,12108.2941270524,102070.0267428090,31695.6456217784,3086.0564421123,21334.4745784418
17735329618,36,3,0,25958.6252405486,14243.2625469994,101343.6639132667,-1077.7659137889,-53115.8294566411,6044.7536015789,102070.0267428090,-56145.7076425218,-28230.3342373918,60015.3394246380,102070.0267428090,102070.0267428090,102070.0267428090,102070.0267428090,3544.9367923959,102070.0267428090
17735329618,36,3,0,6582.7483166053,-18570.1928788122,91426.1270960945,-1715.7669290031,-54105.6715931874,5555.9528848077,102070.0267428090,-80114.0870491354,-32306.9263747694,20865.7505614284,81548.1839643842,58301.2638054933,102070.0267428090,92399.9200405314,-355.7712874060,70160.4121723991
17735329618,36,3,0,-98573.1036820764,-27783.5850808407,-47527.9241999763,-2055.3551796345,-55896.2090191674,5444.8131420269,55266.6037147611,-82469.4367939396,-34720.8392443824,-4391.0297586760,-44109.2029267248,-66776.5756859390,102070.0267428090,-39481.1829370283,-1560.3246020900,-65899.0900618557
17735329618,36,3,0,-98357.6989452199,5119.6192767370,-63537.9606610606,-1509.0012568908,-55376.2955016199,5808.4204261869,53571.2785164206,-59083.0383263673,-31427.1045528961,31989.6415124144,-20260.0304458856,-24499.7792299619,102070.0267428090,-5410.7314232258,2127.4487833105,-18372.0297683538
17735348579,37,3,0,1430.9089786812,19029.0123906117,77832.1815223545,-1149.0564494745,-53788.0947061086,5960.2854502340,102070.0267428090,-52935.2365003950,-28519.5603908732,62429.3131327351,100966.0029392762,99085.5705691683,102070.0267428090,102070.0267428090,3906.9501082721,102070.0267428090
17735348579,37,3,0,31662.8901819311,-9583.7768933189,102070.0267428090,-1334.7233352958,-53209.8492499919,5769.6176410185,102070.0267428090,-74636.8591627722,-31046.7423502109,33759.9318908810,102070.0267428090,87638.2013981444,102070.0267428090,102070.0267428090,660.0367141605,98942.5392930146
17735348579,37,3,0,-79834.0475067554,-30718.1536975074,-10301.7318443566,-2106.6176863496,-55987.3085652808,5419.4313264543,80521.3155264057,-85891.3825068492,-34872.1932251630,-3858.2184824962,-15510.0901340232,-42854.5552042208,102070.0267428090,-9913.7161603698,-1827.0405164489,-39702.8905408392
17735348579,37,3,0,-102070.0389105058,-5283.0679481595,-83332.2603433513,-1677.6698702504,-55512.0869981640,5689.7975498600,35584.6362095399,-65150.5090179147,-32499.1516491782,18873.4362190336,-47764.9022633000,-55142.5783810449,102070.0267428090,-37393.5225223289,1048.0037273600,-51921.6551873471
17735348579,37,3,0,-30717.4844741821,20090.8629569562,41432.3947995553,-1128.6025511152,-55302.8147805062,6212.8625008847,102070.0267428090,-52088.6203231515,-29382.2135925293,61156.0244986983,78852.7714287725,76783.6789194248,102070.0267428090,94909.7021934123,4029.9655231520,89459.8272895071
17735348579,37,3,0,42586.7198617542,573.3053712066,102070.0267428090,-859.7816252059,-51400.0503599412,6109.9967919435,102070.0267428090,-66102.3514372829,-29217.6698283927,46080.1872965891,102070.0267428090,102070.0267428090,102070.0267428090,102070.0267428090,1910.8394444685,102070.0267428090
17735348579,37,3,0,-51094.8236851377,-29407.9969420971,32685.9744661977,-1980.4508379925,-56112.5628363761,5513.4997905924,102070.0267428090,-86961.5679455175,-34625.1524765668,1813.7898946087,21427.9711608293,-8428.0038751981,102070.0267428090,29079.7976556919,-1663.7013542977,-1405.7948524386
17735348579,37,3,0,-102070.0389105058,-15444.7982728713,-84536.3391178591,-1852.2154811755,-55667.1277910819,5575.1656780911,30498.2225774327,-72444.2036921876,-33579.3389346349,6586.3986256522,-61472.5184607599,-74640.2052793985,102070.0267428090,-55145.5838021601,-117.5034482192,-73205.4148054308
17735378531,38,3,0,-62004.3806565875,16576.4670835859,-1210.0774490416,-1311.5073697576,-55265.2652681106,5950.5877958661,95309.4475371365,-52664.1645505734,-29933.8239603005,52439.3055132855,43535.3865122517,40946.3561499629,102070.0267428090,61839.3501845779,3764.6610616246,54224.3431403015
17735378531,38,3,0,38695.5999270487,9279.5966404421,102070.0267428090,-789.7808653835,-51665.8902001288,6187.0061451359,102070.0267428090,-59353.3923820763,-28315.1917550350,55222.1186151764,102070.0267428090,102070.0267428090,102070.0267428090,102070.0267428090,2965.7300882302,102070.0267428090
17735378531,38,3,0,-17490.3219534729,-23928.8222242422,69881.0661887380,-1893.1111101974,-54894.4425397346,5543.0672938722,102070.0267428090,-84064.4393319750,-33718.6590632576,11993.8204353422,58946.4072587425,30734.2272250105,102070.0267428090,67793.2232585863,-961.3818936775,40442.3093090725
17735378531,38,3,0,-102070.0389105058,-23494.1799260299,-69305.1812658050,-2007.4144541521,-55831.2335181329,5468.1021137460,40271.8398765831,-78799.8419475926,-34390.5714495173,-1642.9919343050,-58052.8237717625,-77091.1566181406,102070.0267428090,-54254.1661652146,-1099.8746189162,-76760.7063078231
17735378531,38,3,0,-85960.8478880114,10670.7780889964,-40929.3457098044,-1438.7449754351,-55330.8734893799,5854.4629909649,71739.4141891123,-55961.8294081335,-30759.1588358007,41168.1610953483,5297.6326812566,1919.7583662397,102070.0267428090,22030.9778799807,2857.2915741442,11271.1200825435
17735378531,38,3,0,20232.3732710070,15629.0658735580,96613.0459039592,-1132.0946801033,-53393.5449689279,5971.3702220397,102070.0267428090,-55540.9609427248,-28427.1832365934,61079.4653502884,102070.0267428090,102070.0267428090,102070.0267428090,102070.0267428090,3666.4190774762,102070.0267428090
17735378531,38,3,0,12971.5800489433,-16706.4180856549,97351.0653870579,-1678.8501368422,-54015.4967920326,5574.6302994309,102070.0267428090,-78879.2118339687,-31994.0583863611,23941.2454426984,87891.3138274553,65638.9568714780,102070.0267428090,97921.5965233888,-132.2020259813,78030.8435083827
17735378531,38,3,0,-95031.4156647322,-28773.0135156951,-38720.9817426214,-2085.9812725379,-55925.7886901440,5422.5097537505,62279.6626295097,-83404.2809408462,-34790.5966502683,-4622.1551598278,-37674.4503065770,-62467.7752223924,102070.0267428090,-33337.0800908901,-1661.5841750505,-60008.3551666616
17735430968,39,3,0,-102009.2369294816,2607.1480628581,-69678.4740366361,-1561.7117195278,-55410.3650527242,5764.7627299862,49126.9055748728,-60288.4190444353,-31682.8330370239,28850.1567135525,-27892.7779921298,-33401.3620332057,102070.0267428090,-14562.9079425381,1837.8941020149,-27212.7132489987
17735430968,39,3,0,-6757.5007783764,19851.5730312362,70309.1014275755,-1167.9893857310,-54201.7720626950,5992.1648159101,102070.0267428090,-52338.1676172932,-28587.3101267833,62205.5370204644,95754.5297192228,93612.6622151772,102070.0267428090,102070.0267428090,3932.5631100844,102070.0267428090
17735430968,39,3,0,36222.8684109936,-6770.6053878547,102070.0267428090,-1159.1556378376,-52581.3512059965,5877.7032918967,102070.0267428090,-72461.8711879745,-30585.3676220786,37317.2553986427,102070.0267428090,93975.9774746134,102070.0267428090,102070.0267428090,961.2115459219,102070.0267428090
17735430968,39,3,0,-73013.6397358045,-30800.2248125781,1635.7521546954,-2120.8173885420,-56020.6602222725,5405.9616860713,87677.2840403397,-86435.3758964093,-34853.6131521143,-2868.0599858325,-5990.5465122327,-34822.4881836413,102070.0267428090,54.7911387937,-1843.4669071598,-29436.3233403009
17735430968,39,3,0,-102070.0389105058,-8156.9319253766,-84929.4530668147,-1742.9252283119,-55564.5176037740,5642.3800353410,33627.8272064743,-67095.7222059079,-32812.8105378800,15334.5102688682,-53004.9452354936,-62215.2468425291,102070.0267428090,-43813.3088753845,739.2970912651,-58242.4694944449
17735430968,39,3,0,-39121.7613405755,19628.5878192590,30994.6767755056,-1211.3063864207,-55343.9294280709,6101.8566027690,102070.0267428090,-52013.9350000523,-29556.0169739482,59244.5888370855,70346.5170953060,68229.7758851998,102070.0267428090,87999.0587828224,4081.9215885860,82999.4373321533
17735430968,39,3,0,43445.5037358206,3041.8025287673,102070.0267428090,-827.2573715982,-51228.4493316472,6128.3578464493,102070.0267428090,-64067.6570068538,-28887.4628720117,48769.9661885718,102070.0267428090,102070.0267428090,102070.0267428090,102070.0267428090,2224.7781901972,102070.0267428090
17735430968,39,3,0,-42465.2619120676,-28557.4871018703,44117.4039543835,-1930.4781071407,-56053.5981775722,5611.6809362567,102070.0267428090,-86865.4674760099,-34535.5860602531,3925.2381565970,31220.6674085981,1234.3885072938,102070.0267428090,39296.0879329578,-1580.1457802145,10028.8834107989
17735441852,40,3,0,-102070.0389105058,-17792.1538408628,-81596.5140561649,-1915.4510015644,-55721.4565573963,5525.1929472393,32635.5758659571,-74175.0220621606,-33824.7857149473,4071.3843631373,-62142.4840155279,-76926.2843261897,102070.0267428090,-56614.2004732956,-408.7494393731,-75051.9358044932
17735441852,40,3,0,-68653.8322871761,15246.6108270192,-10722.9531729732,-1348.7283543390,-55275.9120028307,5919.9373675691,90499.8003369639,-53211.7230753027,-30106.7634352450,49974.3978262875,34540.4288035886,31677.7712751455,102070.0267428090,52768.0888491382,3539.1449687082,44780.7624497766
17735441852,40,3,0,35725.4529648718,10999.7926110887,102070.0267428090,-830.1776188357,-51882.4630358804,6194.3067632297,102070.0267428090,-58047.5673267350,-28213.6401573508,57034.8012493742,102070.0267428090,102070.0267428090,102070.0267428090,102070.0267428090,3184.7242956495,102070.0267428090
17735441852,40,3,0,-9105.1605387884,-22219.1026405602,78405.7302474976,-1839.1595424845,-54491.3510793842,5503.7412977404,102070.0267428090,-82641.2690084732,-33147.5195420855,14768.7245342982,67961.4660025571,40612.6327292001,102070.0267428090,78086.4742182572,-733.3227521251,52597.9479444630
17735441852,40,3,0,-102070.0389105058,-24951.3954652423,-60742.1524589628,-2028.4645696558,-55857.0412030944,5457.6987329624,47322.4118006369,-80073.2279232040,-34511.3115050913,-2735.9553014258,-52964.7309974938,-74099.5458387679,102070.0267428090,-48911.1479748084,-1257.6653113161,-72083.5166552651
17735441852,40,3,0,-90424.1902689062,8976.5358156731,-47049.0279884190,-1464.6743373648,-55351.0475307123,5837.0388491144,67747.1198553241,-57108.0264488547,-30988.4590824290,38017.9930586759,-2588.5679898095,-7043.2591382632,102070.0267428090,13678.6205759308,2627.1517564351,2630.2180160344
17735441852,40,3,0,14240.1354489159,16817.4118160738,91420.7854771892,-1137.5701436737,-53479.4002377106,5958.0952648059,102070.0267428090,-54749.5252705734,-28522.6996566535,61790.1075155355,102070.0267428090,102070.0267428090,102070.0267428090,102070.0267428090,3803.3056667343,102070.0267428090
17735441852,40,3,0,20206.2005551409,-14371.2545498800,102070.0267428090,-1594.8321902798,-53844.1634530687,5618.3244987221,102070.0267428090,-77508.6911346198,-31686.9700539437,27409.0755403274,94831.9384430169,74172.5155166151,102070.0267428090,102070.0267428090,162.9862989433,86960.5215235907
17735509741,41,3,0,-90173.8520744710,-29720.2078748770,-27211.6181562847,-2107.7736175478,-55965.2606986376,5410.2933861402,70441.6319813710,-84413.1655229205,-34852.0556869210,-4657.2954682525,-29400.0514360717,-55852.1376212747,102070.0267428090,-24653.5545824103,-1728.5795137576,-51942.2064272810
17735509741,41,3,0,-102070.0389105058,-237.2214172601,-74175.5087700335,-1613.2419155729,-55461.1530192631,5730.3038125836,45803.4573677449,-61886.2079850431,-31971.3169609990,25346.3589041150,-34824.6418659789,-41424.9968398870,102070.0267428090,-22674.0284893763,1590.9141919028,-35336.2691819900
17735509741,41,3,0,-14851.6473881465,20533.1587364701,62337.2523385727,-1136.7670756834,-54649.8231628062,6072.8366458462,102070.0267428090,-51978.0524621214,-28775.6295705120,62084.6266171348,90737.6788098525,88139.1333086481,102070.0267428090,102070.0267428090,4009.6089663673,102070.0267428090
17735509741,41,3,0,40028.3885985497,-4114.5310160715,102070.0267428090,-1011.1721090769,-51964.5219832543,5987.3342402714,102070.0267428090,-70145.1173774927,-30025.5683943455,40653.5648613125,102070.0267428090,99621.9956513045,102070.0267428090,102070.0267428090,1292.7934520439,102070.0267428090
17735509741,41,3,0,-65960.4517569338,-30806.9292135276,13621.1768792297,-2105.0115503690,-56064.3665892605,5412.7877639889,94666.3482569535,-86871.2958027881,-34816.2948259584,-1760.1425193163,3658.0477020620,-26311.7683054408,102070.0267428090,10210.4254473972,-1810.1760886523,-19271.7336068357
17735509741,41,3,0,-102070.0389105058,-10727.5890654627,-84971.2247700079,-1780.8884423994,-55599.8525953478,5620.3321686978,33358.3005541493,-68884.8360113597,-33082.5805441415,12119.2328864962,-56789.1841213063,-67591.6653607142,102070.0267428090,-48697.0695169056,458.4058101075,-63641.6294379921
17735509741,41,3,0,-46712.2991465409,19013.0240369864,21771.1610497204,-1253.1145927043,-55311.4295098568,6028.8625895281,102070.0267428090,-52044.1838943541,-29651.3995493432,57267.6301280812,62343.6160440111,59916.6959064944,102070.0267428090,80619.8008644906,4122.3913482191,75467.1462908793
17735509741,41,3,0,43126.4910605167,5239.2277365065,102070.0267428090,-777.8078517097,-51165.6883514345,6172.1615550119,102070.0267428090,-62294.7019027829,-28598.1637123494,51055.0596519203,102070.0267428090,102070.0267428090,102070.0267428090,102070.0267428090,2491.9564770353,102070.0267428090
17735522238,42,3,0,-33990.7044288249,-27044.2149833946,54758.9309002175,-1917.2639883910,-55696.3667665474,5698.1810929710,102070.0267428090,-86159.9235757316,-34362.9751131228,6470.8906797120,41141.9883794822,11364.3003048136,102070.0267428090,49715.2867224430,-1392.2400381778,21419.2469222073
17735522238,42,3,0,-102070.0389105058,-19658.9218874386,-76301.4122558475,-1928.5312756490,-55736.2768121267,5525.7283258995,37203.9863089179,-75688.5983730569,-33999.9275430167,2020.4217220559,-60632.3633305294,-77221.3996449333,102070.0267428090,-55634.8347237138,-625.4439520929,-74951.4184610389
17735522238,42,3,0,-74883.6687251288,13689.9608693698,-19133.4355647462,-1363.0375658028,-55277.2626171780,5913.3668112848,86323.7372780588,-54115.1988997998,-30304.5858501924,47088.6095061840,25712.7769262410,22199.8655118831,102070.0267428090,43669.3650219691,3336.4311396380,34978.7457462415
17735522238,42,3,0,31116.5605945810,12585.7058795973,102070.0267428090,-934.9536561780,-52360.9942165330,6153.8491712934,102070.0267428090,-56889.2755953718,-28142.5929756016,58528.1791835444,102070.0267428090,102070.0267428090,102070.0267428090,102070.0267428090,3400.9686035869,102070.0267428090
17735522238,42,3,0,-818.0585928000,-20228.9784835934,86745.2871344897,-1758.7554018785,-54173.4213290975,5535.1704586341,102070.0267428090,-81094.3288728885,-32598.7077445835,17950.1878871992,75991.4888500704,50126.2506826379,102070.0267428090,86783.2625162741,-528.3457314458,63773.8192962765
17735522238,42,3,0,-101828.6196378419,-26429.9653123789,-51234.3506646064,-2034.5240826737,-55873.4919291990,5458.5261363464,54910.6742472964,-81270.1764273736,-34612.6440842328,-3590.3344692423,-47084.0101167850,-70109.3321811364,102070.0267428090,-42937.8795920643,-1401.8890217584,-67090.9281333597
17735522238,42,3,0,-95045.1894975358,6972.0294410617,-53619.8884652283,-1491.0660717738,-55373.8497945585,5819.3470179339,63514.9272109748,-58249.6484355704,-31234.1492166779,34779.2441891325,-11089.1643442532,-16277.6892880985,102070.0267428090,4190.7859720609,2362.5530213234,-7088.2674488112
17735522238,42,3,0,7629.9976467622,18072.1325447587,85328.5413549104,-1144.0555260803,-53559.7557075293,5955.1506821747,102070.0267428090,-53684.2190783311,-28525.1088606244,62321.9210405758,102070.0267428090,102070.0267428090,102070.0267428090,102070.0267428090,3889.9031650232,102070.0267428090
17735535927,43,3,0,27204.7555752765,-11781.2021010581,102070.0267428090,-1462.5328227240,-53537.3306422846,5697.4266957680,102070.0267428090,-75998.7042942863,-31362.6522628250,30901.8129133529,100953.2876960962,82076.8095528569,102070.0267428090,102070.0267428090,446.5666410988,95033.0704715001
17735535927,43,3,0,-84850.1926897101,-30569.7199639643,-15955.0506391414,-2110.1463184282,-55985.4104045764,5413.2014656809,77954.6007200902,-85350.6378923409,-34900.2519340367,-4538.8672750748,-21410.1454849837,-49395.8968485376,102070.0267428090,-16202.0913877376,-1796.0980634281,-43899.1398087735
17735535927,43,3,0,-102070.0389105058,-2979.4917533370,-77849.6543349923,-1643.5151452684,-55488.2261446942,5711.9062549873,42953.8314425992,-63536.5735436228,-32265.3493547254,21837.9008667942,-41638.9171177311,-49456.0782770239,102070.0267428090,-30406.4294726004,1312.8214810145,-43007.7830103121
17735535927,43,3,0,-23111.7370471880,20634.1019493133,53357.7962756621,-1082.9128495450,-55024.8437465861,6197.2026750735,102070.0267428090,-51819.5803786994,-29042.8078573502,61850.3132794154,85368.8164313944,82319.3969244159,102070.0267428090,100002.9419034372,4021.0466013808,96281.9020349228
17735535927,43,3,0,41779.6243637916,-1762.1866923826,102070.0267428090,-911.9323737890,-51505.1792604914,6076.6086318613,102070.0267428090,-68019.1408854978,-29564.5830325116,43522.8294491304,102070.0267428090,102070.0267428090,102070.0267428090,102070.0267428090,1615.6511195439,102070.0267428090
17735535927,43,3,0,-59117.2295544398,-30365.3269927325,24612.8049657503,-2041.6786884056,-56115.3614066454,5458.9398380383,100873.1147417299,-87044.2474454294,-34750.1877291193,-169.6906998927,12840.3757741015,-17693.4251488415,102070.0267428090,19738.9123263526,-1763.5494744267,-9393.5227857953
17735535927,43,3,0,-102070.0389105058,-13163.2577769951,-83616.9479459176,-1822.5506363212,-55645.2867752847,5590.7646654181,34298.8148477755,-70628.9415062633,-33343.6141440841,9323.9843984522,-59143.8281396947,-71581.8911860425,102070.0267428090,-52216.1256181591,170.8466310909,-67760.8450173404
17735535927,43,3,0,-54967.9354285452,17718.5757781745,11700.0678986427,-1297.4658476240,-55298.8481113419,5971.6500790667,102070.0267428090,-52343.1320375969,-29805.2844110630,54822.9573208998,53307.2151599691,50460.3513020022,102070.0267428090,71568.8595827451,4014.9505852725,65881.4469014624
17735609718,44,3,0,40494.7764177731,7193.7857156598,102070.0267428090,-785.2666498622,-51402.5812408804,6174.8871191003,102070.0267428090,-60767.5586099291,-28441.2855972112,53087.5638969214,102070.0267428090,102070.0267428090,102070.0267428090,102070.0267428090,2747.6606257695,102070.0267428090
17735609718,44,3,0,-25970.9754528239,-25346.7361027165,63643.4302571219,-1925.5988607147,-55194.7412973248,5586.1409406254,102070.0267428090,-84949.5784373599,-34055.9232837959,9421.3138053389,50718.9513625802,21284.2463259567,102070.0267428090,59612.1384550161,-1135.0879335218,32554.7701913559
17735609718,44,3,0,-102070.0389105058,-21705.3703129987,-70931.9414925483,-1979.2219006134,-55810.3172472943,5485.3924109314,41221.8814768216,-77337.0414355386,-34212.9960820833,106.4795148976,-59213.7802287298,-77403.8664264902,102070.0267428090,-54584.3487862019,-856.8492102716,-74558.2801766897
17735609718,44,3,0,-81568.2484964452,11822.0490592927,-29392.5196317383,-1412.8521165959,-55328.8901547977,5873.6149457642,80664.4198087403,-55239.3724092714,-30575.3414398965,43811.6175655261,14703.7733686573,11035.4804658704,102070.0267428090,32363.1776371819,3091.9699427683,23431.1512564871
17735609718,44,3,0,24613.4255182882,14116.1101151997,102070.0267428090,-1096.7231854391,-53130.5402021000,6028.2055338997,102070.0267428090,-56163.5941568516,-28252.9053149984,59856.1616148002,102070.0267428090,102070.0267428090,102070.0267428090,102070.0267428090,3562.2879280654,102070.0267428090
17735609718,44,3,0,6273.9078358454,-18389.5269163852,93391.6238346916,-1718.7723501183,-54083.8062419966,5551.4386692863,102070.0267428090,-79881.8908906632,-32245.6620212659,21158.1646514774,82600.8600873242,58582.8608130667,102070.0267428090,92918.9453162108,-311.8093987847,72219.5028349583
17735609718,44,3,0,-98680.3375941770,-27936.1314959099,-43854.7642184603,-2061.4755311365,-55916.6750852236,5443.8032231906,60088.7714749644,-82592.3548672450,-34741.5364966782,-4411.8973587274,-42779.4318440359,-66857.6247144766,102070.0267428090,-38702.9005451425,-1543.0464726014,-63429.0232714048
17735609718,44,3,0,-99470.4104842843,4679.4528441670,-62274.0411535775,-1521.4853138311,-55399.8278272755,5797.7493560732,57001.6564432285,-59319.6270233926,-31480.1922141346,31482.4554057437,-20928.1708461301,-26337.0406117421,102070.0267428090,-6991.1205573768,2112.8718825166,-18304.5233863801
17735624418,45,3,0,-325.3763807423,19130.7830068388,78000.9718126824,-1133.5061329348,-53737.8542859267,5966.8681742152,102070.0267428090,-52754.9477365694,-28503.3165156146,62435.8350182322,100749.2597557691,98454.7971658670,102070.0267428090,102070.0267428090,3957.1540253636,102070.0267428090
17735624418,45,3,0,32008.4162686122,-9221.4228819316,102070.0267428090,-1286.6609328452,-53079.9834218007,5803.3708320054,102070.0267428090,-74360.4455940454,-30982.1805508684,34166.1382816181,102070.0267428090,88391.1141421544,102070.0267428090,102070.0267428090,734.2961678709,100722.6003320301
17735624418,45,3,0,-79508.9388153433,-30889.8520673759,-6709.0976804147,-2095.0705420646,-55988.6713473250,5433.5215193752,83843.1819329466,-86012.4754256312,-34869.2851456223,-3945.9354088928,-13973.2126837111,-42838.1044781162,102070.0267428090,-8851.3423830619,-1801.3180053652,-37086.9330654812
17735624418,45,3,0,-102070.0389105058,-5486.3293235868,-81174.1489640470,-1667.2664894668,-55505.1879140654,5705.9684189377,39920.3272830651,-65238.3354535827,-32505.1746591056,18589.9167153622,-47581.2795505449,-56395.9484953825,102070.0267428090,-37818.7105201098,1077.1818643414,-50822.5227979371
17735624418,45,3,0,-31260.4922802996,20239.3210258929,43141.4816630026,-1095.4942480599,-55251.8442985149,6243.7197800276,102070.0267428090,-51899.4126375547,-29315.1087445508,61201.3735047574,79090.1753614849,75996.1612456504,102070.0267428090,94502.0600144501,4045.1143056966,89701.1613882933
17735624418,45,3,0,42673.4390370113,647.0051108631,102070.0267428090,-843.8297746710,-51245.6909580453,6118.5020120227,102070.0267428090,-65949.1357988885,-29155.8457608353,46169.9970668392,102070.0267428090,102070.0267428090,102070.0267428090,102070.0267428090,1938.3627746820,102070.0267428090
17735624418,45,3,0,-50799.6475279099,-29348.9714448090,35885.4703457903,-1936.3551047062,-56095.3942161590,5572.4766170932,102070.0267428090,-86927.9851022861,-34606.7549189705,2010.5658876293,23004.6978182366,-7785.0019365897,102070.0267428090,30281.1873692019,-1648.1997085453,1189.3193582616
17735624418,45,3,0,-102070.0389105058,-15527.7697975070,-81036.1551143780,-1847.0928808131,-55659.5351482644,5580.1422660917,36295.3027101806,-72471.9825440344,-33574.4840236026,6581.7383977690,-60033.8829945961,-74296.3583348790,102070.0267428090,-54272.7340705664,-119.6571305568,-71126.9775049232
17735629517,46,3,0,-62648.7697126337,16307.0499405323,1074.5536418277,-1307.5407005933,-55265.6302990153,5957.7545692949,97739.8719713382,-52819.8867345135,-29959.8871668953,52110.4735066455,43904.4084214979,40452.8587022180,102070.0267428090,61800.4013870477,3759.6723059272,54966.1346094154
17735629517,46,3,0,37884.1848967140,9361.2783892145,102070.0267428090,-763.8880065443,-51601.0363760625,6211.3658741754,102070.0267428090,-59166.4357203918,-28275.9509327811,55171.3184809406,102070.0267428090,102070.0267428090,102070.0267428090,102070.0267428090,2981.6576033715,102070.0267428090
17735629517,46,3,0,-16586.1404025601,-23474.3952509958,72808.5288704601,-1857.1555660856,-54685.4136760133,5526.4583877088,102070.0267428090,-83474.6345638765,-33481.8026769022,12411.1967717627,61248.7058453987,32185.1155618749,102070.0267428090,70203.8873531475,-887.4509677813,44030.9037976692
17735629517,46,3,0,-102070.0389105058,-23573.5619801028,-64233.3932052790,-1989.5401075192,-55823.0324904742,5487.5217578754,46802.0724137006,-78865.2311503191,-34381.0563106017,-1553.8392196833,-55490.1364730954,-75939.1312506412,102070.0267428090,-51904.5960764013,-1080.1386146694,-73417.7654503848
17735629517,46,3,0,-86703.1747357855,10307.6453450125,-38047.5118911684,-1427.3438435120,-55328.9388255850,5869.9768044141,75644.9285091593,-56187.4063395341,-30795.2238891839,40730.8419038350,5831.3078639108,1236.9558913235,102070.0267428090,22132.4443037872,2849.0662110919,12324.6357765643
17735629517,46,3,0,19696.2888843818,15804.4388878670,97470.9537038543,-1115.0355691576,-53393.5206335342,5988.3076560173,102070.0267428090,-55387.0274102178,-28411.3530630268,61158.2146841264,102070.0267428090,102070.0267428090,102070.0267428090,102070.0267428090,3724.9213638009,102070.0267428090
17735629517,46,3,0,14003.0113732305,-16475.2075106253,99660.8349395633,-1649.5381551958,-53972.6786669126,5599.9756119131,102070.0267428090,-78707.6473087652,-31932.2829895910,24352.1607321060,89481.4006159742,66855.2276782025,102070.0267428090,98980.3564947403,-50.8366373263,80152.7559896388
17735629517,46,3,0,-94820.1601124923,-29155.7484192607,-34958.8272265423,-2073.6067248690,-55929.3173222226,5437.7558778696,66432.2542012434,-83638.3752600228,-34807.6800966077,-4804.9626368957,-36323.1910712988,-62262.1654814783,102070.0267428090,-32549.4164047538,-1648.9054349610,-58199.7730462932
17735670128,47,3,0,-102070.0389105058,2309.0273229992,-68302.8915754088,-1556.6742930431,-55410.1095310909,5771.3211185737,52470.9658604188,-60401.5907925854,-31710.3198641469,28470.3663926180,-28383.9635774783,-34788.0536016323,102070.0267428090,-15819.9770367099,1851.7409409994,-27272.8338390009
17735670128,47,3,0,-8251.6209420527,19874.9715122267,70717.7535253740,-1149.9325236458,-54118.6301903038,6000.8403837449,102070.0267428090,-52165.2281423487,-28554.3356683931,62134.5020064120,95556.5247888231,93068.8513410694,102070.0267428090,102070.0267428090,3979.8954507256,102070.0267428090
17735670128,47,3,0,35274.2382635866,-6728.7241753901,102070.0267428090,-1136.5480571405,-52542.2198930139,5896.5023834882,102070.0267428090,-72390.4468076238,-30565.9236425556,37394.8488012826,102070.0267428090,93924.4594462651,102070.0267428090,102070.0267428090,1002.1071749439,102070.0267428090
17735670128,47,3,0,-73744.2247561444,-30829.0987571390,3158.9409460817,-2106.3256616258,-56027.4132940092,5417.4358241753,89590.0094778158,-86457.7766262604,-34851.3256251116,-2853.6777681878,-6147.0960995567,-35388.2009120303,102070.0267428090,-592.9440338788,-1818.3162778268,-28723.7343435621
17735670128,47,3,0,-102070.0389105058,-8235.4500729750,-83850.0080108643,-1732.7286983742,-55566.4400998720,5653.9880181101,36183.0313715953,-67209.6848543516,-32822.9462293335,15162.3008557331,-53749.4379333021,-63261.1820614292,102070.0267428090,-45197.5912398401,734.8315465311,-58314.2467380034
17735670128,47,3,0,-41288.9863248001,19328.8731111163,30707.7746521174,-1199.8079129230,-55353.1282068690,6119.4024215876,102070.0267428090,-52202.8019901380,-29596.5719074591,58871.0283769244,69191.4619712978,66897.3035738162,102070.0267428090,86592.2540115475,4040.8191087181,82023.0039975059
17735670128,47,3,0,40984.6722272584,3033.8570227419,102070.0267428090,-820.0419273822,-51277.9110192325,6140.4403693945,102070.0267428090,-64056.7912535909,-28898.6449853919,48704.0172717915,102070.0267428090,102070.0267428090,102070.0267428090,102070.0267428090,2228.1121391267,102070.0267428090
17735670128,47,3,0,-43170.0392474460,-28147.5452282085,44902.4272503092,-1909.7930225417,-55992.9787120003,5655.3751355479,102070.0267428090,-86580.4026748420,-34512.5526101673,4385.1162580201,31226.9337724619,1345.6012562555,102070.0267428090,38498.2155491870,-1525.6831692351,10309.1298040249
17735697152,48,3,0,-102070.0389105058,-17856.3019385134,-80398.1297637702,-1909.5131655148,-55719.6435705697,5533.2966333233,35223.2191108080,-74286.8066928730,-33835.2986050023,4012.7360644508,-62314.6569255725,-77175.7464464536,102070.0267428090,-57932.9476226629,-402.8602741108,-75176.4478460824
17735697152,48,3,0,-70129.7252410117,14959.4410143010,-11453.6720379781,-1354.6296872981,-55283.6749934037,5915.5813321065,91145.3939949956,-53396.1488560480,-30150.9321747123,49508.3507025752,32977.4394758944,30058.5550204325,102070.0267428090,50336.9708562176,3530.4450654798,43125.3716324090
17735697152,48,3,0,34399.8188991027,11289.6636525017,102070.0267428090,-840.8000181621,-51939.4808631927,6197.7988922179,102070.0267428090,-57837.5772149646,-28196.2890216813,57206.1102529444,102070.0267428090,102070.0267428090,102070.0267428090,102070.0267428090,3240.4645147954,102070.0267428090
17735697152,48,3,0,-8101.9339357369,-21868.6364689690,80090.7980774163,-1813.8385653960,-54383.4844470488,5514.0838400399,102070.0267428090,-82340.7755677338,-33008.0168980105,15180.8079226008,69038.6478668985,41640.4259121372,102070.0267428090,78840.3725457099,-684.7371387111,54100.3664773726
17735697152,48,3,0,-102070.0389105058,-25244.0042384404,-58880.4218388717,-2026.4568996801,-55860.3143135397,5460.6068125031,50154.0903729687,-80296.4199860272,-34533.6513964583,-2910.6225893191,-52286.8929428813,-74076.2812024424,102070.0267428090,-49407.5291667003,-1258.2250253700,-71933.5984627097
17735697152,48,3,0,-91220.7728768137,8775.4159548867,-47189.0051726701,-1465.6842562011,-55356.4864911922,5839.6549039314,69010.4309779661,-57238.8778604886,-31019.6205539926,37674.6328220293,-3540.3617383905,-8414.2178746977,102070.0267428090,11530.3893664468,2620.4838585761,1113.3077562087
17735697152,48,3,0,13511.6797755201,17026.0634811936,91338.2884927297,-1122.7255535497,-53468.1451181493,5970.6401602303,102070.0267428090,-54630.9997358211,-28544.6623494189,61863.6612428302,102070.0267428090,102070.0267428090,102070.0267428090,102070.0267428090,3817.2741826870,102070.0267428090
17735697152,48,3,0,20559.2462784585,-14202.8049550632,102070.0267428090,-1579.0141844100,-53830.7546511698,5636.2110130518,102070.0267428090,-77432.1684893003,-31655.0663528739,27633.1923481091,95369.7871456814,74574.6457289165,102070.0267428090,102070.0267428090,196.0459312112,87384.6630994448
17735722344,49,3,0,-89969.2157493027,-29650.5478105656,-25048.4450151020,-2090.4589849687,-55956.9136586171,5428.6179375556,73247.4055271668,-84362.3288855942,-34826.7347098325,-4464.3644674279,-28330.8759162398,-55370.8930442305,102070.0267428090,-24083.2181292285,-1703.4045490309,-50693.0706714378
17735722344,49,3,0,-102070.0389105058,-200.2681220088,-71692.7875748868,-1596.8520279524,-55450.8713154477,5747.9104698864,49459.6069091025,-61829.9445549338,-31954.9027379849,25351.9682123503,-33767.0499935224,-41276.0885661678,102070.0267428090,-21953.1167880107,1601.8164482562,-33948.3730115779
17735722344,49,3,0,-14594.2275941604,20372.0949336249,63731.8285745406,-1131.2186059321,-54505.7576324225,6060.2065765440,102070.0267428090,-51886.9407483112,-28730.1345520910,61756.1109706122,90893.0602982814,87793.0353402164,102070.0267428090,102070.0267428090,4020.3895457524,102070.0267428090
17735722344,49,3,0,40234.3390349748,-4004.4011921270,102070.0267428090,-976.7010239776,-51850.4376578424,6019.6029722459,102070.0267428090,-69962.4680804835,-29969.8646782901,40740.4300489314,102070.0267428090,99685.4136871457,102070.0267428090,102070.0267428090,1341.3182269738,102070.0267428090
17735722344,49,3,0,-64986.9751726143,-30521.9495862375,16973.3530185566,-2060.9158170826,-56070.3774314910,5449.8749039053,97557.0888296639,-86821.6759351441,-34771.6758817086,-1327.0455186005,5920.8742802245,-25831.7526657758,102070.0267428090,11477.8005807780,-1759.1326004800,-17134.2829767368
17735722344,49,3,0,-102070.0389105058,-11016.4258526457,-81898.5041236135,-1768.1610315226,-55588.2081094883,5635.4566158488,37984.1546938113,-69178.4547033941,-33097.6928235956,11925.2432960481,-55349.5387363063,-68473.2514986268,102070.0267428090,-49119.3129320553,438.0249179291,-63290.9199124644
17735722344,49,3,0,-48232.5798583866,18579.1118005834,21883.7609161199,-1236.0311463649,-55309.4340075779,6055.5463486608,102070.0267428090,-52224.5943351478,-29695.5317857201,56748.0086352575,61758.6296838545,57650.1703484977,102070.0267428090,78666.6300027751,4081.8607501019,73924.5621907572
17735722344,49,3,0,42306.4126300441,5515.6413052333,102070.0267428090,-759.9821758641,-51136.2790282134,6189.9872308575,102070.0267428090,-61952.0230571584,-28558.5456914939,51247.3701002069,102070.0267428090,102070.0267428090,102070.0267428090,102070.0267428090,2548.3050810224,102070.0267428090
