timestamp,sequence,battery,flags,EEG-ch1,EEG-ch2,EEG-ch3,EEG-ch4,EEG-ch5,EEG-ch6,EEG-ch7,EEG-ch8,EEG-ch9,EEG-ch10,EEG-ch11,EEG-ch12,EEG-ch13,EEG-ch14,EEG-ch15,EEG-ch16
16636478979,268,-2,0,-76252.5711208002,-77850.4452352858,84188.5741749626,-23401.3647346645,-61663.8068225133,-6529.4781399144,98083.6337419799,-71608.1004049991,-43552.9323310704,-11071.4116745886,-35920.3307971880,-55800.6682637137,95527.6751796559,-25521.0748627956,-3444.8818214209,100387.1612660152
16636478979,268,-2,0,-68251.2640377891,-76023.4168865337,91757.7211699133,-23338.8227729946,-62478.4097894157,-6467.0213521223,102070.0267428090,-72511.1990308947,-43465.5439324880,-10914.5822302377,-35791.8520864346,-58628.1368129448,102070.0267428090,36370.1097102481,-3289.8045254125,102070.0267428090
16636478979,268,-2,0,33106.4292299145,27935.8394711862,102070.0267428090,-23332.3495582848,-63081.8545456526,-6455.2551892945,102070.0267428090,-74345.1142960485,-43455.8706135138,-10841.0650060335,-35756.5535979512,-69475.9427230182,102070.0267428090,92508.5532377666,-3255.0170801957,102070.0267428090
16636478979,268,-2,0,-29689.4844403991,-38164.0540913385,95661.7631986447,-23393.2853839741,-63433.5009838357,-6531.6439899489,102070.0267428090,-74549.6532796422,-43497.9465091275,-10989.6812550289,-35850.2083603974,-71507.3883783957,102070.0267428090,60466.3351073803,-3391.9645079379,102070.0267428090
16636478979,268,-2,0,-68445.1319512690,-70993.1693429613,84983.9765162783,-23418.5576902753,-62023.5082759931,-6552.9496270859,98341.2482191153,-72300.5640311928,-43565.1486986806,-11101.3442087730,-35940.6386831855,-60098.0189245499,94763.0449436054,-29047.1395574191,-3492.1533235780,98783.7995202625
16636478979,268,-2,0,-72143.2357112721,-78281.6440752972,89627.0844500353,-23344.5902612887,-62494.3494722537,-6477.4612359964,102070.0267428090,-72904.0209551266,-43475.3997669146,-10942.3610820844,-35813.3889098112,-61361.0258547712,100606.6665167011,17779.4507653797,-3329.8362479600,102070.0267428090
16636478979,268,-2,0,9659.1071043497,6526.8985881880,100946.0479164866,-23299.1439136550,-62177.2227899574,-6439.9603943880,102070.0267428090,-72723.3063219122,-43418.1629210595,-10801.8728545668,-35715.0860871786,-60390.5668592639,102070.0267428090,89735.6081379991,-3190.2119269167,102070.0267428090
16636478979,268,-2,0,-9388.8747256090,-19530.6621952280,97582.0326081510,-23371.1401757563,-63702.6747729528,-6522.3600372730,102070.0267428090,-75107.2014834630,-43479.0257405678,-10968.6919780093,-35827.0654010402,-74613.2538309357,102070.0267428090,66026.0843135967,-3375.1365832318,102070.0267428090
16636490162,269,-2,0,-56795.4991559574,-60908.1320113245,88257.5858372195,-23391.5819064189,-62515.0832276400,-6539.9788622726,100886.7668975652,-73320.6793974346,-43540.6064541887,-11088.7993133486,-35924.6503295602,-65916.8427315204,96293.8628808998,-11147.3137673701,-3497.0325700040,99534.5707496317
16636490162,269,-2,0,-75132.5954667325,-78835.9800071568,87189.1160438033,-23320.0115137063,-61966.5512871649,-6466.8266689731,100994.1224866340,-72072.4805542467,-43477.8089708855,-10967.2440220874,-35825.2524142135,-57446.6412837403,98953.8187479695,3653.1684556360,-3350.1197985638,102070.0267428090
16636490162,269,-2,0,-26327.8296652471,-30349.5454899532,97545.7850393154,-23260.9616810246,-61719.3401908132,-6415.4911560771,102070.0267428090,-71636.9378464695,-43388.3033930560,-10807.7863552227,-35698.6840318613,-54368.6763600153,102070.0267428090,74935.5396166850,-3194.7869809221,102070.0267428090
16636490162,269,-2,0,16852.3087705620,6903.8538357627,100251.1385832315,-23325.5599834576,-63793.1172634377,-6488.2174799878,102070.0267428090,-75419.6436024825,-43446.5623254442,-10927.6868397160,-35794.8088367625,-76330.1280203496,102070.0267428090,76671.4927547173,-3345.7272600107,102070.0267428090
16636490162,269,-2,0,-45449.7059180115,-51141.4259639696,92327.1207104397,-23346.7196082327,-62913.0034168407,-6505.8606403811,102070.0267428090,-74018.4968102303,-43496.9852610785,-11036.4903847067,-35879.1066403519,-69340.7352759217,99720.0794553942,22840.4582465205,-3456.5506426741,102070.0267428090
16636490162,269,-2,0,-77276.5801500254,-79364.4352478740,84964.5933752394,-23315.5216335786,-61615.3915568548,-6468.6274881029,98992.9743963457,-71560.4273688469,-43490.2565247354,-11008.9792221901,-35853.7613278697,-55152.1300230509,96868.2755125172,-14101.0100034424,-3383.6296356142,102070.0267428090
16636490162,269,-2,0,-57593.8339122075,-64536.6365455004,93664.7399575794,-23268.7246715976,-61985.1678633041,-6425.7241891052,102070.0267428090,-71795.8966377644,-43412.1764142226,-10863.3562266131,-35738.2533819295,-54913.6188299276,102070.0267428090,52132.0833362030,-3232.7745304033,102070.0267428090
16636490162,269,-2,0,33100.4548907744,25259.4450457087,102070.0267428090,-23294.8852197669,-63516.3751668967,-6460.6211435934,102070.0267428090,-75103.2348142988,-43425.6825576960,-10877.8966243165,-35760.6054409933,-74255.7303951872,102070.0267428090,86019.2528327615,-3291.8121953883,102070.0267428090
16636547741,270,-2,0,-38807.3358869738,-46089.4469138713,94532.1993994806,-23330.9746085438,-63186.3872290585,-6496.8322093385,102070.0267428090,-74316.2281837909,-43474.5723635306,-10994.5239983644,-35846.8014052870,-70315.9153377964,102070.0267428090,48663.1824812537,-3404.4607325751,102070.0267428090
16636547741,270,-2,0,-75078.6682344132,-76880.8744816465,83785.5070500059,-23346.7317759295,-61660.3876997061,-6502.2833375152,97654.3817334602,-71704.0305267512,-43528.1710680357,-11071.5455192536,-35909.1486838077,-56587.9182481580,94865.3996092800,-29909.9144360435,-3449.0796768248,99472.5154958347
16636547741,270,-2,0,-70827.4939830201,-78731.8975285333,90839.6197738351,-23280.0406296429,-62537.7881499116,-6440.3132575959,102070.0267428090,-72740.4749421294,-43446.2946361141,-10922.2113761457,-35790.1851119698,-59995.0315386405,102000.1111568644,28241.9057170705,-3299.5265151740,102070.0267428090
16636547741,270,-2,0,28683.4105962909,24165.2527412088,102070.0267428090,-23256.0094284176,-62758.3398225243,-6415.4059821993,102070.0267428090,-73896.2357925534,-43415.9849033281,-10825.4660187064,-35732.4858936354,-67125.4722246400,102070.0267428090,92300.3882805197,-3230.0854694055,102070.0267428090
16636547741,270,-2,0,-25185.4776167220,-34379.6448577703,95864.9150648006,-23321.7271589583,-63440.2175524819,-6493.9241297978,102070.0267428090,-74662.8736985797,-43472.0658179851,-10983.1106987445,-35837.8946512126,-72210.6325839744,102070.0267428090,61170.3458778589,-3381.2082639464,102070.0267428090
16636547741,270,-2,0,-65326.9649572410,-68335.1238042928,85413.1920217076,-23358.1572432462,-62092.5964585538,-6519.9264979084,98632.8470734771,-72548.8215494712,-43542.3707702281,-11102.2202829443,-35935.0293749501,-61647.7697981007,94753.3472892375,-26943.6854722435,-3493.0659008397,98508.3471995847
16636547741,270,-2,0,-72078.4548933868,-77528.8895113459,88917.6590544704,-23284.9685468562,-62292.3900403865,-6442.5399461145,102070.0267428090,-72654.2181393516,-43458.4501652402,-10943.5900194636,-35806.9400304950,-60397.2834279101,100127.1862556962,15146.1421543522,-3329.3617077839,102070.0267428090
16636547741,270,-2,0,2306.0097341871,-732.7873734649,100197.7467295725,-23251.6655606518,-61961.2218359565,-6420.5407502586,102070.0267428090,-72341.4596602147,-43402.5030952483,-10807.4456597117,-35710.9734056525,-58308.3819081347,102070.0267428090,87561.9951129424,-3187.5228659188,102070.0267428090
16636562534,271,-2,0,-1204.9548486791,-11441.2731549155,98219.1940522843,-23333.5419925734,-63730.1859354695,-6505.2279201463,102070.0267428090,-75233.6360211502,-43472.9783952468,-10964.5306256958,-35827.2965872798,-75351.3828233058,102070.0267428090,69351.5888614877,-3369.0162317298,102070.0267428090
16636562534,271,-2,0,-52707.4572158695,-57211.0868409450,89255.0327842801,-23363.0608250659,-62612.0232682284,-6527.3852960609,101735.6462664178,-73529.8664412146,-43536.4694372689,-11083.5672037147,-35925.7697576679,-67072.5184080666,96999.1512595448,-2469.9329457858,-3489.6954488198,100124.7892194221
16636562534,271,-2,0,-75349.9105319903,-78492.7901182657,86481.0534302827,-23311.1412627224,-61841.4795315219,-6467.1308613937,100392.9652573997,-71905.9047847406,-43487.6891407057,-10985.1305364171,-35841.8369849832,-56598.4554736067,98375.4394471877,-266.4725604224,-3356.7755287259,102070.0267428090
16636562534,271,-2,0,-35045.7654203422,-39704.2776582770,96385.4004640987,-23269.4182303165,-61733.8562531230,-6432.6111055070,102070.0267428090,-71588.6199223856,-43409.5725271025,-10839.2763546005,-35724.8567477274,-53902.7022424839,102070.0267428090,69334.9677876276,-3211.7122472028,102070.0267428090
16636562534,271,-2,0,22451.5178175752,12950.4447595619,100670.6442665961,-23334.2112158987,-63771.7994586039,-6503.8286350117,102070.0267428090,-75421.7242786393,-43461.1392262381,-10933.0041232276,-35807.1712167347,-76232.2754024996,102070.0267428090,78775.1293553453,-3341.7605908464,102070.0267428090
16636562534,271,-2,0,-42829.8061088829,-48779.2623089445,93006.8569257566,-23359.9945654665,-63007.0475455852,-6524.4772165202,102070.0267428090,-74130.6464718474,-43510.0533674663,-11039.5444766093,-35887.8673820644,-69719.6251872913,100518.4142116443,30949.0114093291,-3450.8439928641,102070.0267428090
16636562534,271,-2,0,-76853.9108654868,-78701.0280816935,84417.8014154100,-23349.0071352354,-61616.6326619308,-6505.2765909336,98454.9918490161,-71553.8081417752,-43525.4211685537,-11047.0884486395,-35891.4203495367,-55248.5468526759,96212.9963678145,-18513.1993868935,-3414.8884487523,101356.2453117816
16636562534,271,-2,0,-62070.4269149424,-69445.5721517481,92748.5610575991,-23301.8451423497,-62156.2578483314,-6460.9010006203,102070.0267428090,-72029.3217336157,-43446.4771515664,-10899.3726092090,-35771.7145481926,-56010.0256552492,102070.0267428090,46555.8225653979,-3266.2235289696,102070.0267428090
16636582723,272,-2,0,36126.3055690068,29439.4261029908,102070.0267428090,-23324.1606983229,-63390.6098525348,-6482.6325071461,102070.0267428090,-74891.8940881811,-43451.1130440560,-10883.3355847964,-35775.4135280268,-72724.3649115358,102070.0267428090,89953.1908925869,-3292.1772262929,102070.0267428090
16636582723,272,-2,0,-33124.7051105425,-40663.3111864676,95027.6680141108,-23374.5836339572,-63285.1524241704,-6537.0707827319,102070.0267428090,-74400.6233289548,-43502.3512153774,-11011.7534570657,-35864.8339319786,-70570.1471952149,102070.0267428090,57002.3500019474,-3409.3156436074,102070.0267428090
16636582723,272,-2,0,-71992.5022830295,-74070.8422419626,84133.3693344769,-23397.7265933144,-61780.7140535882,-6550.0050444547,97826.3721280525,-71882.2507821168,-43560.5249738879,-11102.7556616045,-35939.6044289556,-57597.3138734988,94786.8571262879,-28500.0920759565,-3473.9991199182,99219.3665634333
16636582723,272,-2,0,-68843.1859851347,-76128.4362778126,90552.6324765692,-23328.3828891205,-62635.0202152237,-6477.8262669010,102070.0267428090,-72936.0950039519,-43473.6354508752,-10944.6607767840,-35815.5304244520,-60968.4716198695,101531.2897982764,27633.5938821043,-3317.3156879291,102070.0267428090
16636582723,272,-2,0,25968.5175780656,22214.3694064960,102046.4092432757,-23302.6725457336,-62586.4346018097,-6451.8969049713,102070.0267428090,-73545.0882299401,-43446.7813439870,-10834.9324868347,-35753.4630029582,-64875.9449391050,102070.0267428090,93690.9613442328,-3221.5680816294,102070.0267428090
16636582723,272,-2,0,-17776.6035243231,-27273.2475406929,96476.0376377328,-23381.0203455765,-63580.2677429140,-6541.2808058327,102070.0267428090,-74878.6678017345,-43500.9884333332,-11005.9007948939,-35860.8185920270,-73187.8568189153,102070.0267428090,64922.8514103574,-3391.7941601824,102070.0267428090
16636582723,272,-2,0,-60991.9431070409,-64409.4841137007,86338.0708249163,-23406.8767013253,-62278.7013814607,-6562.0388966126,99331.7352435932,-72858.0513965295,-43569.6629142019,-11124.8278636413,-35958.0263219455,-63234.9971778662,95168.7889618632,-21289.5757771652,-3509.2976084015,98735.7371178119
16636582723,272,-2,0,-71637.4245543424,-76464.2647101258,88383.6796793956,-23334.6127498938,-62217.5587049254,-6482.6203394493,101960.3957944343,-72478.8451250425,-43486.3993648425,-10974.3621247288,-35834.3660191339,-59339.0588352189,99795.9693804789,13106.9943468858,-3342.8070127732,102070.0267428090
16636622739,273,-2,0,-6121.1302345365,-9335.1908472262,99302.3745911595,-23291.0888983582,-61876.6076722498,-6448.8914838561,102070.0267428090,-72069.0127606522,-43411.2881723545,-10832.0974134749,-35724.3335367641,-56682.5342586532,102070.0267428090,84133.2354898119,-3197.9627497929,102070.0267428090
16636622739,273,-2,0,6102.8300185148,-4098.1897992383,98840.8173475748,-23376.5182977521,-63803.5206442213,-6540.8671041407,102070.0267428090,-75348.7059300048,-43490.9987542416,-10981.0665256782,-35845.3291139714,-75824.7792358992,102070.0267428090,72328.0021875285,-3377.3754394472,102070.0267428090
16636622739,273,-2,0,-48164.2217376353,-53081.2610299671,90430.2376142272,-23399.8924433489,-62759.1793936050,-6554.6531046411,102070.0267428090,-73743.0444895525,-43542.0665778075,-11085.9885753825,-35931.4034012969,-68006.3648038337,97950.7746603702,7604.1047879230,-3491.7152864924,101056.6036098198
16636622739,273,-2,0,-75320.3430287105,-78062.1996630954,85977.8096573826,-23352.4505934363,-61790.3143663815,-6499.0832332507,99934.4864411113,-71787.0142190837,-43506.2327106639,-11012.7025374179,-35867.0362851035,-56004.3555085297,97905.3404804334,-3157.5416609471,-3382.0113319367,102070.0267428090
16636622739,273,-2,0,-42477.7094659174,-47883.5008042332,95386.8949274145,-23301.5896207164,-61814.6254246337,-6453.9410780376,102070.0267428090,-71599.5100110421,-43423.1760121505,-10859.3895574488,-35740.5530766290,-53850.9286925023,102070.0267428090,64702.9689610700,-3228.8321966327,102070.0267428090
16636622739,273,-2,0,29006.9739902066,20115.5025430227,101313.4028512680,-23351.5136807809,-63740.0296021992,-6509.1337508265,102070.0267428090,-75355.6901879812,-43457.1360539833,-10923.2334626788,-35797.8629286651,-75761.6045539945,102070.0267428090,83036.9868445489,-3333.2918738577,102070.0267428090
16636622739,273,-2,0,-38825.6969414796,-45280.7452799281,93789.0208129289,-23380.6188115814,-63116.3864692361,-6529.4051337335,102070.0267428090,-74237.3693406814,-43503.9330159644,-11032.2438585155,-35878.4495847235,-70037.1534035827,101473.2255490374,40716.3623446157,-3443.6650517386,102070.0267428090
16636622739,273,-2,0,-75940.4210265045,-77786.2119637575,84109.9343503960,-23375.3380311602,-61642.3430053177,-6515.5339593553,98090.5936645627,-71586.6974262876,-43528.6091051213,-11065.8145340500,-35899.2441785939,-55506.0639882366,95682.2779354882,-21940.9369234909,-3434.2594220944,100668.7217704981
16636662734,274,-2,0,-64976.2189286228,-72976.3579127390,91981.8258099983,-23321.6784881711,-62336.6926245188,-6465.3300422639,102070.0267428090,-72280.7793561587,-43448.7890139628,-10915.7989999200,-35781.2175194113,-57329.3690217608,102070.0267428090,41353.2926025094,-3283.3921491868,102070.0267428090
16636662734,274,-2,0,36124.4317436960,30003.3745153405,102070.0267428090,-23320.0236814031,-63227.2828580804,-6466.4494703716,102070.0267428090,-74615.3466747893,-43437.5947328857,-10861.7622583293,-35754.7649465182,-71098.4685912670,102070.0267428090,91522.3735779640,-3272.2343712001,102070.0267428090
16636662734,274,-2,0,-30980.0877070149,-39425.2723701269,95096.0383025589,-23377.2118564710,-63358.3532882572,-6533.2501259295,102070.0267428090,-74486.5272685248,-43490.4998786718,-11009.3442530947,-35851.8388317717,-71034.3569967069,102070.0267428090,58816.2250704339,-3403.4751491324,102070.0267428090
16636662734,274,-2,0,-69998.4966307763,-72481.8870492483,84180.3488119103,-23404.5161681416,-61897.0737383060,-6552.4142484257,97767.5534816104,-72085.4513190600,-43558.8701671200,-11112.3681420946,-35944.0943090832,-58778.7607319160,94459.6069202349,-29644.8289930589,-3492.2871682431,98630.8029004108
16636662734,274,-2,0,-69745.9682509129,-76714.5298983800,89859.3171115979,-23334.4789052288,-62595.3170204905,-6480.9655326814,102070.0267428090,-72999.3061889470,-43476.2880087827,-10954.6017850883,-35825.9338052356,-61493.0331976033,100785.0327844286,22301.7456373816,-3336.2121210952,102070.0267428090
16636662734,274,-2,0,18427.5509689569,14743.3792218160,101295.9665417207,-23304.6802157094,-62372.8428517798,-6454.7928168152,102070.0267428090,-73100.5170911203,-43432.8980019120,-10827.0843223839,-35746.2110556517,-62511.3234093217,102070.0267428090,91864.0790078427,-3218.3314742745,102070.0267428090
16636662734,274,-2,0,-13393.9086379708,-23513.7699179148,96754.3980379513,-23386.3862998755,-63664.6628880779,-6540.1613777250,102070.0267428090,-75006.0392520771,-43498.7252417242,-10995.3635694452,-35860.5387350001,-73935.4401117169,102070.0267428090,65063.6803333861,-3391.1371045539,102070.0267428090
16636662734,274,-2,0,-58073.2655024250,-62037.3307795840,87088.5621972585,-23414.9925551062,-62420.3455401766,-6559.4228417957,99917.5368394369,-73103.3278290864,-43563.1896994921,-11109.3140501920,-35954.5706960478,-64671.7223156287,95511.7354968179,-16091.5965328885,-3505.5864608705,98865.5664429127
16636685213,275,-2,0,-73035.8336148095,-77402.6374891110,87539.6187184850,-23348.7272782085,-62113.3667170306,-6485.9786237724,101248.5368595049,-72280.4994991317,-43491.5463005986,-10977.7569121424,-35842.5792144894,-58389.4066012787,99145.3991344467,8442.2035773904,-3352.5290025347,102070.0267428090
16636685213,275,-2,0,-16872.8843458896,-20656.3079960151,98083.8649282196,-23307.3449413136,-61812.8854439880,-6450.7774768636,102070.0267428090,-71824.1743651809,-43413.0281530002,-10834.1902573285,-35726.5237221922,-55269.1832664876,102070.0267428090,79111.3106508663,-3209.3517140192,102070.0267428090
16636685213,275,-2,0,11950.6129439239,1714.6596685922,99305.8180493603,-23379.0735140849,-63832.0417255743,-6527.7624946624,102070.0267428090,-75394.9431779320,-43475.8986424843,-10964.2142655785,-35827.8806367273,-76131.5147051088,102070.0267428090,74315.3886127101,-3367.3614249619,102070.0267428090
16636685213,275,-2,0,-46172.5766185657,-51574.4864615949,91187.7497476363,-23404.1024664497,-62881.5255851597,-6546.5980893443,102070.0267428090,-73913.1732265309,-43531.6753647207,-11076.4125979828,-35916.9360097744,-68828.8159351868,98618.1606634118,15521.3695889781,-3487.3470833329,101652.7477479630
16636685213,275,-2,0,-76508.7498097104,-78914.3034716061,85053.9407730103,-23375.4840435221,-61741.5219021215,-6509.2797631883,99101.0843826175,-71676.0326563616,-43518.2543951250,-11036.5390554940,-35880.9804656626,-55523.7071486299,97033.7075185219,-9992.4776619047,-3403.9253539148,102070.0267428090
16636685213,275,-2,0,-51131.7039742080,-57455.9982425972,94145.9115284426,-23322.0921898630,-61924.7917516686,-6463.5900616182,102070.0267428090,-71675.6067869728,-43431.9489215599,-10880.4396729525,-35754.8501203960,-54151.2517854861,102070.0267428090,57485.3588950309,-3246.3658477546,102070.0267428090
16636685213,275,-2,0,32173.4345729249,23845.2179793718,101558.6549484312,-23362.9878188849,-63669.5299668071,-6512.4920351496,102070.0267428090,-75257.3873653486,-43455.9192843010,-10919.1572842431,-35794.3707996769,-75082.7930836362,102070.0267428090,84576.6506974335,-3328.1327704047,102070.0267428090
16636685213,275,-2,0,-38251.6493407669,-45101.0040624596,94020.4869095917,-23397.5440778621,-63200.6721051287,-6543.5196620481,102070.0267428090,-74314.4760354484,-43509.5058211093,-11030.6863933222,-35880.1287268850,-70229.0988209647,101983.0155428282,45426.6846356225,-3437.2283401192,102070.0267428090
16636757854,276,-2,0,-75239.0384785396,-77001.4806925555,83652.6723037898,-23404.2119757211,-61666.2038587874,-6542.6192524832,97632.0418420933,-71630.8296626644,-43548.8196495442,-11080.2210870884,-35919.9901016770,-55885.6231229315,95051.3463521282,-25868.0002346113,-3448.4834596805,99831.1096889036
16636757854,276,-2,0,-66859.1213411858,-74873.5695367657,91252.1411992233,-23342.5947590097,-62499.1557124988,-6482.2674762414,102070.0267428090,-72547.4100966398,-43464.2906597152,-10921.3353019744,-35797.2545438240,-58783.7251522198,102070.0267428090,35751.8933700680,-3291.8121953883,102070.0267428090
16636757854,276,-2,0,34070.8043770104,28922.8343666759,102070.0267428090,-23336.4622398109,-63039.7786500389,-6475.1007028127,102070.0267428090,-74281.9031110534,-43448.9106909310,-10845.2141906501,-35757.3931690320,-69178.5763803623,102070.0267428090,92634.6105768523,-3251.6952989630,102070.0267428090
16636757854,276,-2,0,-27060.9942373135,-35675.6262463818,95333.7707630855,-23397.5927486494,-63440.1323786042,-6546.9509525522,102070.0267428090,-74568.8904083193,-43503.7018297247,-10999.3059032158,-35861.1957906285,-71565.7324846617,102070.0267428090,61631.5137551452,-3389.7864902066,102070.0267428090
16636757854,276,-2,0,-66649.2529063837,-69337.0119606938,84695.1640644890,-23427.3305996847,-62038.4502076917,-6566.5409444371,98094.0371227635,-72326.4325546383,-43572.1329566570,-11115.2762216353,-35956.1159935443,-60199.2906652072,94493.0924218916,-27468.8310994248,-3489.8779642721,98444.1139280564
16636757854,276,-2,0,-69762.2607969588,-75840.9257695833,89307.5485637680,-23350.3090787954,-62486.9028417981,-6488.1201384132,102070.0267428090,-72881.0483435249,-43484.1970117176,-10958.9821559446,-35829.2069156810,-61279.7213046003,100316.9536553468,19705.7675202069,-3332.2454519309,102070.0267428090
16636757854,276,-2,0,11024.6147126075,7922.6064199603,100616.1086494357,-23315.3269504295,-62172.4530528028,-6461.2416961314,102070.0267428090,-72683.6152948758,-43427.4347060385,-10828.6782906677,-35736.4160597092,-60164.8560831983,102070.0267428090,90166.9894934628,-3206.3462929039,102070.0267428090
16636757854,276,-2,0,-5935.4025102311,-15892.3504974128,97407.5600034068,-23399.6369217156,-63731.0620096407,-6548.6544301074,102070.0267428090,-75138.1804395743,-43497.0826026531,-10995.9841219832,-35853.8221663538,-74660.7686870293,102070.0267428090,68405.6599427754,-3388.1925219228,102070.0267428090
16636772463,277,-2,0,-53840.4401378409,-57966.5913043783,88160.9743244453,-23429.5816235969,-62558.2420482710,-6572.3936066089,100799.8287037653,-73368.9121476407,-43563.8710905142,-11117.5759163348,-35954.6315345319,-66066.8947687409,96188.1499309020,-8087.6247242731,-3514.8947489401,99387.1469349249
16636772463,277,-2,0,-73650.7525091505,-77261.7233922046,86877.2823096249,-23363.4745267579,-62000.1341303963,-6501.2734186788,100703.8620789227,-72100.4054184554,-43500.9397625459,-10998.4176613477,-35855.6594885741,-57421.8191822215,98654.9557786044,5094.4564797071,-3370.2330014121,102070.0267428090
16636772463,277,-2,0,-25545.8604612239,-29527.1551970842,97127.8489888410,-23322.0070159853,-61777.9763218030,-6468.5909850124,102070.0267428090,-71675.7649670315,-43427.3130290703,-10853.7315784261,-35743.3394792015,-54283.0766128659,102070.0267428090,74987.6660298745,-3228.6375134835,102070.0267428090
16636772463,277,-2,0,19309.6968209233,9704.9671536754,100031.2074631569,-23389.0510254797,-63844.3797701528,-6541.1104580772,102070.0267428090,-75456.1101898609,-43486.4480356298,-10964.6523026641,-35837.0064093445,-76302.4951808647,102070.0267428090,77929.4987615444,-3372.8977270163,102070.0267428090
16636772463,277,-2,0,-42973.8473038729,-48525.2251346751,92131.1964561967,-23411.2084013943,-62986.0217654751,-6558.1330659325,102070.0267428090,-74068.8467396836,-43538.3675979733,-11071.8983824615,-35921.8639269877,-69401.3304060999,99551.9097176043,25219.5471678263,-3482.0541352150,102070.0267428090
16636772463,277,-2,0,-76107.7876963040,-78126.2990899587,84620.2718905438,-23384.7436608044,-61675.3417991015,-6521.4596277081,98691.3980305891,-71588.3765684492,-43530.0935641337,-11049.2056278867,-35895.8128880898,-55128.3908465493,96561.4305340362,-12851.1198503962,-3413.4891636177,101813.1788305735
16636772463,277,-2,0,-55287.8485134140,-62105.7984096067,93395.1889698608,-23328.7600877220,-62049.3402963483,-6471.7789215800,102070.0267428090,-71841.9270348456,-43444.4086431065,-10895.0895799273,-35770.5951200849,-54956.8141536490,102070.0267428090,53679.8508751717,-3256.0269990320,102070.0267428090
16636772463,277,-2,0,36271.7947199187,28987.6395199549,102044.4380763904,-23354.9936420723,-63551.6371522896,-6503.0620701118,102070.0267428090,-75101.3853243817,-43452.4149876160,-10901.6479685149,-35784.9895054264,-74051.2157469872,102070.0267428090,88289.4286998051,-3307.3746796248,102070.0267428090
16636786178,278,-2,0,-34034.6419820526,-41063.2755487346,94560.4771268971,-23392.3971421060,-63251.2045500343,-6539.0054465268,102070.0267428090,-74340.2472173194,-43501.8036690204,-11018.6403734675,-35869.4941598618,-70294.8287192022,102070.0267428090,53936.7352904977,-3420.4369185036,102070.0267428090
16636786178,278,-2,0,-72766.3678009686,-74667.2662371327,83930.7528469813,-23407.0348813840,-61724.2072695424,-6546.0992137746,97745.7368012068,-71731.7242047202,-43549.9025745614,-11094.0435906792,-35930.9653642113,-56656.3615427871,94940.6933172204,-25491.3735148508,-3464.6421610613,99559.7335466615
16636786178,278,-2,0,-65826.3515702481,-73513.3183735354,90937.7644164089,-23342.6069267065,-62610.2711198859,-6482.9975380508,102070.0267428090,-72788.5981830642,-43464.5948521358,-10938.6255991598,-35807.3293967933,-60120.5048282787,102067.4593587794,33961.3681117848,-3307.0583195074,102070.0267428090
16636786178,278,-2,0,32309.8952927942,28160.2604713885,102070.0267428090,-23326.1075298146,-62807.4973176889,-6462.7261551438,102070.0267428090,-73900.2146294145,-43444.8223447985,-10840.0307518035,-35754.9474619706,-66869.8289143900,102070.0267428090,94692.0829357340,-3235.6461068536,102070.0267428090
16636786178,278,-2,0,-19429.2444422087,-28363.8260392363,96047.3940140542,-23395.1348738912,-63517.2755764616,-6541.9865322484,102070.0267428090,-74711.1186164826,-43495.0019264963,-10998.0404627462,-35854.6860728282,-72322.6240655328,102070.0267428090,67318.1112007408,-3387.7909879276,102070.0267428090
16636786178,278,-2,0,-61725.1563498946,-64862.8890004139,85715.4011076990,-23425.3472651025,-62182.1628748675,-6567.7090433321,98841.0972046017,-72623.4947048737,-43565.9152635804,-11115.9211095669,-35953.8893050257,-61920.7764117170,94925.4593607980,-22008.4554731614,-3502.0456610951,98704.5148077642
16636786178,278,-2,0,-69087.4524988553,-74425.6157782291,88945.9854526742,-23350.7836189715,-62350.2109356891,-6486.1124684375,102070.0267428090,-72664.5485139543,-43481.8121431403,-10960.0529132650,-35826.7003701355,-60368.1296263224,100148.0538557476,19540.7248805005,-3339.8989332325,102070.0267428090
16636786178,278,-2,0,4437.8875591412,1471.3787383143,100096.1099580104,-23305.9213207853,-62003.9426195019,-6451.7265572158,102070.0267428090,-72322.4658854741,-43415.8267232695,-10818.9076301189,-35720.5128799617,-58123.3964133355,102070.0267428090,88839.3842608085,-3197.1596818026,102070.0267428090
16636801239,279,-2,0,2793.3624950364,-7267.7409769496,98287.1263036468,-23387.1772001690,-63790.0023330510,-6536.2677147416,102070.0267428090,-75263.3373690950,-43485.5354583681,-10977.0390180298,-35834.8040562196,-75418.3294912257,102070.0267428090,72797.2737508989,-3379.1519231833,102070.0267428090
16636801239,279,-2,0,-49396.1158670804,-54013.5012897536,89390.0820513180,-23417.0002250820,-62682.2673819872,-6558.8266246514,101839.6070680730,-73580.0460229124,-43545.4126944338,-11093.1675165080,-35928.6291664213,-67240.4691273136,97089.0827067631,1713.4672343035,-3497.3854332119,100216.9960259464
16636801239,279,-2,0,-73735.5370206128,-76866.5287670922,86403.8858970316,-23358.5709449382,-61876.7536846116,-6493.8389559200,100315.1285008234,-71901.0012029210,-43493.4444613030,-10995.9841219832,-35845.2682754873,-56519.4992889226,98299.4278451348,2825.6555624045,-3364.1491530007,102070.0267428090
16636801239,279,-2,0,-33026.6699772401,-37798.2931248409,96258.7469078687,-23309.2187666244,-61779.7893086296,-6451.6292156412,102070.0267428090,-71592.5622561562,-43414.2814257729,-10845.2141906501,-35726.3533744367,-53903.0064349045,102070.0267428090,71156.2894865697,-3212.8681784010,102070.0267428090
16636801239,279,-2,0,25705.0017679712,16409.5262831751,100724.3281449789,-23370.7264740643,-63804.1533644561,-6519.2572745832,102070.0267428090,-75430.7770450755,-43463.0130515488,-10934.2817313940,-35805.9787824460,-76242.6179447990,102070.0267428090,81265.7595534269,-3340.8966843720,102070.0267428090
16636801239,279,-2,0,-39789.1595113138,-45845.5089279650,93050.3077711113,-23397.6535871335,-63057.5191520068,-6539.4069805219,102070.0267428090,-74154.9088593123,-43512.7424284642,-11038.4128808048,-35886.1639045092,-69756.7123272076,100575.2981942915,35064.2846549068,-3446.0012495286,102070.0267428090
16636801239,279,-2,0,-75632.0307505270,-77578.2538573566,84343.7366448488,-23386.1916167263,-61650.2155051621,-6521.4474600113,98368.0901583067,-71558.2371834187,-43526.6379382360,-11047.5143180283,-35889.0598163531,-55227.5940787468,96109.0842369466,-16071.3616530719,-3412.9172818670,101236.6125166184
16636801239,279,-2,0,-60049.3846403486,-67651.7251122323,92585.5382555654,-23336.1337119967,-62215.6848796147,-6474.6018272430,102070.0267428090,-72071.1542752930,-43448.6916723882,-10900.0418325343,-35771.2886788038,-56237.6345920192,102070.0267428090,48468.7548537199,-3263.4736294876,102070.0267428090
16636858787,280,-2,0,37318.2896528726,30678.5356766519,102070.0267428090,-23343.7263548142,-63396.0974838019,-6486.9885426087,102070.0267428090,-74852.6289305335,-43445.1995434000,-10877.7141088642,-35763.7082036831,-72600.0597207927,102070.0267428090,90681.1598581099,-3284.6819250500,102070.0267428090
16636858787,280,-2,0,-31898.9800033866,-39600.6453844360,94819.6369015289,-23388.6373237877,-63311.5198231857,-6533.5908214406,102070.0267428090,-74395.9996041621,-43493.8946660854,-11007.9936387474,-35853.5788124174,-70578.4455644481,102070.0267428090,58450.1964146061,-3404.4972356655,102070.0267428090
16636858787,280,-2,0,-71098.7484482940,-73290.0898076217,83913.0610158007,-23410.4418364944,-61806.7285893956,-6548.4597469582,97625.3861119311,-71894.9903606905,-43554.0882622685,-11101.4537180444,-35932.4741586173,-57739.5055785717,94556.2062653122,-27860.4362539744,-3473.9139460404,98923.1439842788
16636858787,280,-2,0,-67911.2985885561,-75266.7929949927,90270.9381274212,-23339.6015055913,-62649.2199174161,-6479.2985582166,102070.0267428090,-72941.1202627397,-43465.5682678816,-10944.1740689111,-35804.8106835510,-61066.9812933480,101239.0582236798,27751.5718704995,-3315.2228440756,102070.0267428090
16636858787,280,-2,0,25982.0723923264,22259.9130957043,101789.0989585609,-23315.9353352706,-62559.1789609263,-6455.7053940769,102070.0267428090,-73457.2374588785,-43432.7276541565,-10827.6927072250,-35734.3840543398,-64522.0109739192,102070.0267428090,93889.1609577817,-3214.0971157801,102070.0267428090
16636858787,280,-2,0,-15906.5623673020,-25426.3128399385,96368.9497379941,-23391.8982665363,-63603.6662239045,-6543.5196620481,102070.0267428090,-74877.5483736268,-43491.6801452637,-10992.9543654742,-35844.4652074970,-73280.0149546523,102070.0267428090,66830.1987258377,-3382.1816796922,102070.0267428090
16636858787,280,-2,0,-59656.5018776326,-63164.9477472565,86263.5558495726,-23426.5883701785,-62315.8736952548,-6573.6833824722,99266.4068793508,-72888.4949739805,-43561.2063649100,-11113.0495331167,-35943.2060672151,-63399.1880787950,95070.6199838958,-18973.4425192213,-3498.6995444687,98586.7193348213
16636858787,280,-2,0,-70890.0724477805,-75644.9893476434,88143.0999778124,-23356.3077533291,-62222.5109575324,-6497.8786312652,101745.3804238761,-72452.2830428780,-43482.0311616831,-10963.9465762483,-35822.0766453428,-59217.0411714784,99589.9216024792,14854.5432999904,-3335.6159039509,102070.0267428090
16636914813,281,-2,0,-6374.1939930600,-9615.8022713568,99026.0096932200,-23311.6401382921,-61894.1413233716,-6465.3543776575,102070.0267428090,-72033.3249058705,-43409.0006453518,-10821.8400450532,-35710.5597039605,-56533.7719972959,102070.0267428090,84412.1556040842,-3189.8347283152,102070.0267428090
16636914813,281,-2,0,6842.5529791687,-3262.3542013799,98670.0802257553,-23392.6039929520,-63840.0967408711,-6549.0316287089,102070.0267428090,-75366.5316058504,-43482.0676647736,-10970.4441263518,-35829.6936235539,-75955.7401568045,102070.0267428090,72633.8737502636,-3364.5750223895,102070.0267428090
16636914813,281,-2,0,-48528.8146052379,-53420.5815912685,90147.3751661843,-23418.0101439183,-62789.1971016672,-6569.8748933666,102070.0267428090,-73759.1545201461,-43543.8795646341,-11088.4464501407,-35926.6458318391,-68087.9978818188,97705.4252216324,8463.8255746448,-3485.8382889269,100728.1853048718
16636914813,281,-2,0,-75519.2605363720,-78182.4408430998,85504.7417726034,-23364.8494764989,-61791.9083346653,-6508.9025645868,99527.9393548631,-71762.8978439806,-43507.0722817447,-11013.2865868654,-35860.9646043889,-55848.0371074454,97500.1683439262,-4061.3703486520,-3372.7152115640,102070.0267428090
16636914813,281,-2,0,-43993.1230990339,-49488.3956797856,94947.3733827762,-23310.4842070939,-61844.1442571262,-6461.2416961314,102070.0267428090,-71603.5010156001,-43419.3675230449,-10863.1858788576,-35737.9005187216,-53888.5633787756,102070.0267428090,63664.3100248701,-3221.2638892088,102070.0267428090
16636914813,281,-2,0,28753.0098221181,20101.3393439208,101044.4115776032,-23358.0112308844,-63734.3837908734,-6512.9422399320,102070.0267428090,-75336.7329163310,-43453.8021050539,-10925.0221141118,-35795.6362401465,-75681.0665687235,102070.0267428090,82935.2770668060,-3324.9204984435,102070.0267428090
16636914813,281,-2,0,-39307.4403940936,-45534.6729449261,93532.2337391776,-23380.4119607354,-63119.5135673196,-6531.5101452839,102070.0267428090,-74223.5225016969,-43500.5138931571,-11026.7927303388,-35876.7826102587,-69981.7173768574,101269.4896334340,41514.6605977752,-3429.5140203335,102070.0267428090
16636914813,281,-2,0,-75685.2400887337,-77407.0665307546,83762.1815751963,-23379.5845573514,-61643.2434148826,-6522.8224097523,97806.1615836296,-71567.1074344026,-43531.2129922414,-11061.3368216192,-35900.6312960317,-55477.9201054851,95384.8872574387,-21652.6841857554,-3426.3382514627,100320.3119396700
16636928524,282,-2,0,-64704.0397183904,-72442.1595191213,91712.4208346415,-23322.7979162788,-62356.1366040419,-6469.8320900884,102070.0267428090,-72304.5185326602,-43450.6506715767,-10911.5768091224,-35781.2905255923,-57492.3553207041,102070.0267428090,41819.2180492535,-3277.5394870149,102070.0267428090
16636928524,282,-2,0,36670.7126602588,31092.3347102065,102070.0267428090,-23323.9173443865,-63206.2935810609,-6473.4337283480,102070.0267428090,-74558.5235306261,-43434.6866533450,-10859.5720729012,-35752.5382579996,-70873.9380817933,102070.0267428090,92440.9130111279,-3267.5863110138,102070.0267428090
16636928524,282,-2,0,-29279.8345914611,-37296.6189848310,95029.6756840865,-23383.8432512395,-63372.5894935400,-6540.3803962678,102070.0267428090,-74480.0175507245,-43490.7797356988,-11003.4672555293,-35849.8554971895,-71089.0629616229,102070.0267428090,61489.8817641262,-3396.3692141878,102070.0267428090
16636928524,282,-2,0,-68886.3326380689,-71251.5382172996,84109.9343503960,-23411.2084013943,-61914.8020725770,-6559.9460527591,97705.1818676960,-72093.7131852028,-43555.0981811048,-11109.5939072190,-35936.2461446324,-58868.0351235059,94363.6037923019,-27679.8919685156,-3483.7454450733,98492.6995414704
16636928524,282,-2,0,-68297.0145778433,-74825.0325941390,89739.3314532269,-23339.8935303150,-62583.3075037262,-6484.6401771219,102070.0267428090,-72984.6441142754,-43466.5173482338,-10945.6098571362,-35810.5051656641,-61423.9936858300,100683.6637021967,24631.4337095862,-3323.6915610644,102070.0267428090
16636928524,282,-2,0,19044.2220116404,15864.8880056834,101219.7359211250,-23302.6603780368,-62343.2753485001,-6453.7950656757,102070.0267428090,-73034.4586650685,-43413.8798917778,-10812.6047631646,-35723.8711642848,-62195.4865028886,102070.0267428090,92687.4183810639,-3202.1727728936,102070.0267428090
16636928524,282,-2,0,-11206.8016371374,-20874.2071107204,96772.2480491905,-23385.4737226137,-63680.9554341238,-6540.5264086297,102070.0267428090,-75021.9545995215,-43485.9856631505,-10991.1048755572,-35843.5891333257,-74103.9748804115,102070.0267428090,67063.0032691510,-3382.2303504795,102070.0267428090
16636928524,282,-2,0,-56931.5340064379,-60646.0641571520,87052.5093115721,-23413.4472576097,-62431.1261195617,-6562.3309213364,99901.9621875036,-73117.5031958851,-43554.0760945717,-11105.7610827197,-35940.4561677332,-64800.5782249837,95468.0534652235,-13857.7169054677,-3497.9694826594,98767.5191419134
16636938622,283,-2,0,-72342.9562869239,-76406.2856347644,87351.7373118419,-23346.1112233915,-62095.8330659087,-6489.0205479781,101098.3874807098,-72233.2401646714,-43484.3795271699,-10971.3932067040,-35828.9635617445,-58168.4655623677,99008.7924022155,9885.3654267723,-3342.7948450764,102070.0267428090
16636938622,283,-2,0,-17085.6000217482,-20584.7619386962,97899.5486567457,-23302.3805210099,-61811.2306372201,-6452.6999729617,102070.0267428090,-71792.6600304095,-43407.6378633076,-10824.9914785303,-35713.1149202933,-55204.9378272624,102070.0267428090,79485.9418683479,-3196.0037506044,102070.0267428090
16636938622,283,-2,0,13031.0557510138,3225.6929308524,99253.4847853249,-23375.8247390331,-63838.1012385921,-6531.0964435919,102070.0267428090,-75402.2316283289,-43470.4718497013,-10953.3850154060,-35818.7426964133,-76197.2689387399,102070.0267428090,75263.2521952173,-3354.4149955423,102070.0267428090
16636938622,283,-2,0,-45787.4203433323,-50945.1975173060,91114.6340574272,-23400.1479649822,-62889.5319296692,-6549.4818334913,102070.0267428090,-73911.7252706090,-43525.0926407395,-11064.1840626757,-35909.1973545950,-68841.9448800588,98569.1978513963,17623.1810350826,-3471.2005496489,101571.1390053716
16636938622,283,-2,0,-76314.7602192623,-78597.4079755494,84775.6533789728,-23371.0793372722,-61726.0080886722,-6512.4068612718,98869.9103106784,-71644.0437814141,-43510.6374169138,-11024.2618493997,-35872.9619534563,-55396.3965367714,96796.6807844110,-9598.9986820444,-3387.1460999960,102070.0267428090
16636938622,283,-2,0,-51770.3377096570,-57984.3074709525,93876.0076775161,-23321.9948482885,-61940.9382853527,-6469.3453822154,102070.0267428090,-71689.5996383192,-43430.1967732174,-10872.1169683256,-35749.7275200335,-54219.2448753327,102070.0267428090,57565.7021971528,-3233.3099090636,102070.0267428090
16636938622,283,-2,0,32983.7180074551,25052.5090258409,101493.2657457047,-23358.2545848208,-63652.5803651327,-6514.8282329396,102070.0267428090,-75232.6869407980,-43449.7989327991,-10905.7363146474,-35784.4054559789,-74963.8173441015,102070.0267428090,85699.0598908658,-3309.7352128085,102070.0267428090
16636938622,283,-2,0,-37345.5574614529,-44092.8008714075,93950.8511806740,-23393.6990856660,-63206.8289597211,-6545.6855120826,102070.0267428090,-74311.9329868124,-43502.9474325217,-11019.2487583086,-35868.8249365365,-70198.9107651469,101954.1902690546,47869.6417975518,-3420.2909061417,102070.0267428090
16636962369,284,-2,0,-74723.8095242690,-76484.7672792724,83455.9206461628,-23397.3737301066,-61669.0024290567,-6541.5241597691,97472.3529889890,-71629.0531789282,-43546.0940854559,-11075.8285485353,-35915.7800785762,-55852.0159443065,94864.8642306198,-24863.0944893982,-3443.0444992006,99605.3745774444
16636962369,284,-2,0,-66007.4434020640,-74003.9807479205,91084.5676785777,-23335.5739979429,-62516.5920220460,-6483.4234074396,102070.0267428090,-72569.6283110385,-43462.9035422774,-10921.6759974854,-35792.0589372806,-58864.3969821559,102070.0267428090,37131.7466928801,-3287.3709860479,102070.0267428090
16636962369,284,-2,0,34753.0714732664,29819.6057902236,102070.0267428090,-23325.0489401910,-63011.7199411652,-6471.3165491008,102070.0267428090,-74230.1417287686,-43438.2882916046,-10843.5715515790,-35745.9433663216,-68902.0167992737,102070.0267428090,93596.8442093074,-3244.3460100820,102070.0267428090
16636962369,284,-2,0,-25534.0699630025,-34281.5488859837,95283.3478274512,-23389.5255656558,-63456.5344339215,-6543.3128112021,102070.0267428090,-74594.1018761364,-43491.4732944177,-10994.4631598803,-35846.5215482600,-71695.5983128529,102070.0267428090,63536.7438913783,-3381.9991642399,102070.0267428090
16636962369,284,-2,0,-65761.8262739961,-68602.5941158547,84596.6178879200,-23421.3440928478,-62047.9045081231,-6568.3660989606,98015.3972981969,-72347.0933038437,-43564.9418478346,-11106.5519830132,-35943.6927750881,-60332.5269454184,94375.1631042837,-25934.0829960567,-3485.1934009953,98276.6134135918
16636962369,284,-2,0,-68922.6532130854,-75041.3255728636,89122.0641933990,-23344.1643918999,-62471.0726682314,-6488.3391569561,102070.0267428090,-72833.5091520376,-43472.0414825914,-10938.9662946708,-35810.8458611752,-61159.0055844199,100168.6659341656,21078.9894482505,-3318.1552590099,102070.0267428090
16636962369,284,-2,0,10666.8965937099,7492.8677035677,100424.7594491981,-23307.0164134994,-62152.8873963115,-6458.4552935589,102070.0267428090,-72624.3464436513,-43412.0669049512,-10808.9666218145,-35711.3141011635,-59888.7588745889,102070.0267428090,90376.6632451158,-3188.2285923346,102070.0267428090
16636962369,284,-2,0,-4914.8977776910,-15014.6823578771,97315.8764078459,-23386.5444799342,-63743.7164143366,-6541.6336690405,102070.0267428090,-75145.8095854822,-43482.7247204020,-10974.0822677019,-35829.8396359158,-74809.0077374232,102070.0267428090,69198.5800739392,-3372.0581559356,102070.0267428090
16636997567,285,-2,0,-53416.5540836201,-57752.2329894485,88024.4527660919,-23413.8244562112,-62563.8148534159,-6561.6373626175,100699.3600310982,-73366.0284034937,-43545.2301789814,-11089.0061641945,-35927.0838689247,-66149.9758026479,96064.9033297824,-6586.1431040189,-3490.2794982673,99202.0884339448
16636997567,285,-2,0,-73742.2049184718,-77412.1647957234,86533.4353651054,-23353.3996737885,-61986.4211360768,-6495.8101228053,100405.9481899098,-72055.0929154867,-43490.2078539481,-10976.9781795457,-35834.4998637990,-57262.2155029950,98360.6678632447,4777.5974867409,-3348.5379979768,102070.0267428090
16636997567,285,-2,0,-27085.6703264704,-31349.5598210435,96758.1456885728,-23306.2498485996,-61776.4553597001,-6456.1434311626,102070.0267428090,-71634.6138163763,-43407.2484970093,-10824.2979198114,-35714.2586837947,-54190.7481293734,102070.0267428090,74258.4437915787,-3197.2813587708,102070.0267428090
16636997567,285,-2,0,19560.4973878378,9851.3080433649,99860.3364966723,-23370.1424246168,-63837.6510338097,-6525.3167876010,102070.0267428090,-75431.3975976135,-43458.6935191767,-10928.1248768016,-35800.3573065138,-76331.2839515478,102070.0267428090,78032.0846134587,-3336.3824688507,102070.0267428090
16636997567,285,-2,0,-43467.8922979748,-49247.1710902708,91929.4438751755,-23397.9942826445,-62989.8424222776,-6546.3669031047,102070.0267428090,-74060.0981656679,-43513.5698318481,-11042.4768915436,-35888.6217792674,-69414.7148726052,99386.6358916583,26199.9350039412,-3454.0075940381,102070.0267428090
16636997567,285,-2,0,-76318.5808760647,-78390.4232848943,84167.9742642414,-23376.4209561775,-61666.1795233938,-6518.5272127738,98311.9362374688,-71559.7094747343,-43512.9006085229,-11031.4164551316,-35874.3004001068,-55024.8924173734,96169.1926592519,-13946.0908874927,-3396.8559220607,101379.0110725373
16636997567,285,-2,0,-56866.8383624303,-64040.7420614814,92983.9938234263,-23326.8132562303,-62073.1768144244,-6473.3485544702,102070.0267428090,-71855.9077184952,-43433.7497406897,-10883.7492864883,-35755.9817162005,-55037.6806667343,102070.0267428090,52471.3308913235,-3246.3415123609,102070.0267428090
16636997567,285,-2,0,35824.1451538027,28479.1879728147,101815.3690160017,-23343.8967025697,-63531.7186325904,-6499.7402888792,102070.0267428090,-75059.9421490027,-43437.0836896191,-10886.4018443957,-35767.1516618840,-73909.6567621491,102070.0267428090,88198.3899921759,-3293.3453251880,102070.0267428090
16637037464,286,-2,0,-35159.2900317003,-42519.4811691106,94246.0881763859,-23382.5169722858,-63263.7007746715,-6536.0608638956,102070.0267428090,-74352.6461003819,-43491.5949713859,-11006.2414904049,-35857.4724754007,-70362.5784551123,102070.0267428090,53530.6749121224,-3405.5314898955,102070.0267428090
16637037464,286,-2,0,-73067.7373158793,-75041.9096223111,83414.4287999966,-23398.7365121507,-61712.2342558686,-6543.3006435053,97329.0296881116,-71728.9986406319,-43543.7092168786,-11081.0606581692,-35919.5642322882,-56660.7175782497,94494.0171668502,-26754.0397495611,-3449.5298816072,99024.3427187552
16637037464,286,-2,0,-67030.5641894211,-74977.5911769051,90486.6835597888,-23330.6095776391,-62615.0895278278,-6477.1448758790,102070.0267428090,-72804.2580088753,-43453.8264404475,-10918.6584086734,-35791.3653785617,-60253.7167730962,101595.0972004159,32068.5733617048,-3289.2326436618,102070.0267428090
16637037464,286,-2,0,30327.8748219115,25988.0832345569,101855.0235399476,-23305.6292960616,-62755.2978983185,-6452.6513021744,102070.0267428090,-73803.2380857356,-43410.9231414498,-10810.6579316729,-35718.7242285287,-66628.6286602688,102070.0267428090,93773.7625211129,-3211.2377070267,102070.0267428090
16637037464,286,-2,0,-21269.9614498866,-30568.7100451280,95623.9581646159,-23373.8779075415,-63520.5973576943,-6528.4317179877,102070.0267428090,-74720.6945938823,-43468.1964903954,-10969.2273566695,-35822.1374838269,-72458.3182205022,102070.0267428090,64877.2347149682,-3360.2189869268,102070.0267428090
16637037464,286,-2,0,-62667.4106241664,-65930.6774028081,85161.3450328664,-23409.4440853549,-62171.4674693601,-6555.3709987536,98414.5220893830,-72619.2725140761,-43543.5997076072,-11090.7096417498,-35923.8959323571,-61972.5499616987,94459.4487401762,-23415.4914306759,-3478.8905340410,98101.9704610921
16637037464,286,-2,0,-70534.7026943697,-76043.4570832011,88340.4356848869,-23333.6515018448,-62324.3424122436,-6478.4711548327,101844.0726128070,-72619.5888741935,-43461.1148908444,-10938.5160898884,-35803.2653860545,-60154.4770378083,99613.5999404967,16690.5757443914,-3323.2656916756,102070.0267428090
16637037464,286,-2,0,1138.2393669989,-2081.3575477452,99512.5837214726,-23289.8356255854,-61976.2002707455,-6443.0996601684,102070.0267428090,-72246.3691095434,-43389.2159703177,-10800.2788862830,-35697.0292250934,-57832.7953101132,102070.0267428090,87081.6387777662,-3184.1402462020,102070.0267428090
16637057548,287,-2,0,1382.7735700496,-8919.7856776909,97876.6977221122,-23368.5241209394,-63791.0974257651,-6525.0247628772,102070.0267428090,-75257.4360361359,-43464.0716411724,-10952.1074072396,-35815.7616106917,-75523.7990872869,102070.0267428090,70881.7619108504,-3361.4479243060,102070.0267428090
16637057548,287,-2,0,-50992.3838455853,-55828.8851526461,88899.8942171089,-23399.9167787426,-62679.8946811068,-6547.5836727870,101448.9996646629,-73580.5083953917,-43532.7704574348,-11076.5464426479,-35918.5056426646,-67279.3084155725,96678.6054544412,856.2043223400,-3490.0969828149,99678.4172614725
16637057548,287,-2,0,-74780.8395192781,-77946.3023508569,85705.6791179375,-23349.4695077147,-61853.8662468877,-6493.1210618075,99720.3349770275,-71859.1443258501,-43495.2696158264,-10988.3063052879,-35846.1078465681,-56264.5373696947,97711.3265545916,-189.7308965601,-3366.4731830938,102070.0267428090
16637057548,287,-2,0,-36043.1028581315,-41117.5069734744,95672.9331443282,-23300.0321555230,-61784.3765303319,-6451.5197063698,102070.0267428090,-71566.6693973170,-43412.1399111321,-10829.8342218659,-35722.0825128518,-53707.4593792630,102070.0267428090,68909.8041252403,-3207.3927148307,102070.0267428090
16637057548,287,-2,0,25060.3085195044,15671.7136509224,100388.6822281181,-23364.4844455942,-63816.0412042521,-6523.1509375665,102070.0267428090,-75418.8527021890,-43465.9819695736,-10920.2402092603,-35805.1635467589,-76233.4435013945,102070.0267428090,80419.6787548436,-3334.2044511194,102070.0267428090
16637057548,287,-2,0,-41294.0967574658,-47593.1673903410,92657.4371760921,-23396.4124820576,-63076.5859329283,-6550.7837770514,102070.0267428090,-74163.0003776996,-43525.3968331600,-11034.6530624865,-35895.8128880898,-69757.0408550218,100237.5350981835,34456.0336584247,-3449.7245647564,102070.0267428090
16637057548,287,-2,0,-75870.0065649901,-77807.1160668993,83748.9431210529,-23386.3741321786,-61645.7256250344,-6534.8684296070,97883.2074399124,-71539.0730609226,-43544.4514463848,-11046.3583868301,-35902.1522581345,-55061.2981662676,95618.4583656519,-17750.9783548140,-3417.1394726646,100686.2310862263
16637057548,287,-2,0,-60965.7338880843,-68821.7221679391,92147.4768345458,-23335.5496625492,-62253.7697706705,-6488.0106291418,102070.0267428090,-72106.6839500160,-43463.7066102677,-10899.3239384217,-35784.6609776122,-56336.8256565198,102070.0267428090,47021.5046582055,-3265.8706657617,102070.0267428090
16637086151,288,-2,0,37035.6827264630,30431.9451328382,101979.8276062605,-23347.7051916753,-63387.7504437814,-6504.9723985130,102070.0267428090,-74821.7716513905,-43454.2401421395,-10875.9011220375,-35774.3792737968,-72445.6759835032,102070.0267428090,90469.8799704763,-3285.5701669181,102070.0267428090
16637086151,288,-2,0,-32134.5222784851,-40088.8985548502,94504.9924293845,-23391.7279187807,-63337.3396758439,-6550.4187461467,102070.0267428090,-74410.0897970830,-43505.5513196418,-11002.9805476563,-35863.1547898170,-70641.4620662942,102070.0267428090,58279.2281065470,-3402.8059258071,102070.0267428090
16637086151,288,-2,0,-70808.6462206414,-73110.7622918452,83513.6685352845,-23417.4869329549,-61829.2144931244,-6570.0574088189,97304.2684250769,-71915.6024391085,-43572.2181305347,-11103.8750897122,-35946.3453329955,-57764.5223632397,94202.3453063074,-27931.4104295426,-3478.5620062268,98492.7238768641
16637086151,288,-2,0,-67992.1285985509,-75499.1473335237,89882.3140585933,-23350.3090787954,-62676.8405892042,-6503.0864055055,102070.0267428090,-72970.0063749974,-43483.6129622701,-10945.4395093807,-35821.4195897143,-61166.6590657216,100841.5030653839,27318.2558512409,-3321.7325618759,102070.0267428090
16637086151,288,-2,0,24778.9061950802,20956.0957103388,101415.6236722776,-23319.4274642588,-62546.3663761718,-6475.6117460793,102070.0267428090,-73393.1867028025,-43435.8790876337,-10821.8887158405,-35737.4868170297,-64158.8052237544,102070.0267428090,93447.6682462581,-3215.2043761910,102070.0267428090
16637086151,288,-2,0,-16045.3592849613,-25896.1806204532,96052.3584343580,-23401.3525669677,-63646.3870074499,-6561.1019839573,102070.0267428090,-74913.9541225211,-43503.3367988201,-10988.8416839481,-35852.9825952730,-73409.2723980024,102070.0267428090,65787.8529775004,-3381.9991642399,102070.0267428090
16637086151,288,-2,0,-59891.7034572201,-63654.1986688102,85797.7642474935,-23427.0872457482,-62333.3343401957,-6579.5117092504,98906.8514382329,-72900.6626708034,-43566.2802944851,-11103.9480958931,-35946.6251900224,-63554.1193624415,94665.6425305378,-19570.3410545676,-3494.8058814854,98051.4501838833
16637086151,288,-2,0,-71755.7797413392,-76691.2652620546,87532.0017402738,-23351.8178732015,-62213.6407065484,-6497.5379357542,101205.5362189326,-72408.9660421884,-43483.0045774289,-10955.8550578611,-35824.4615139201,-58998.1929764210,99067.7083902322,12311.8110241129,-3333.2066999799,102070.0267428090
16637135382,289,-2,0,-8699.9397314940,-12284.2633585058,98503.2854377064,-23308.2210154849,-61883.5675948325,-6465.5368931099,102070.0267428090,-71978.3025808371,-43408.8789683836,-10815.6101842799,-35713.0054110219,-56240.1533052615,102070.0267428090,82977.0366023023,-3193.7162236017,102070.0267428090
16637135382,289,-2,0,7105.7280937521,-3343.8047639127,98381.7058110515,-23384.7071577139,-63856.9611686677,-6544.3348977352,102070.0267428090,-75373.8565593378,-43478.7702189345,-10953.1781645600,-35825.2280788199,-76054.8460474274,102070.0267428090,72144.4889840449,-3358.2599877383,102070.0267428090
16637135382,289,-2,0,-48830.4761448723,-54141.6879757833,89806.0347672103,-23411.3665814530,-62804.3580519086,-6564.0709019821,102070.0267428090,-73760.2131097697,-43539.5721999588,-11073.2124937184,-35919.2235367771,-68094.7996243429,97413.5221748500,8878.8170424881,-3480.4845023248,100363.2882448486
16637135382,289,-2,0,-75417.4655847512,-78196.7500545635,84986.7507511540,-23367.5020344063,-61777.7816386538,-6512.3460227877,99095.7062606218,-71718.9359553593,-43510.8807708503,-11005.1220622972,-35863.8605162327,-55683.5420140960,97076.0267680721,-4947.0204973035,-3372.2285036911,102070.0267428090
16637135382,289,-2,0,-44636.7942609676,-50618.1663297957,94538.4170925571,-23323.1386117898,-61871.8744381856,-6472.7645050227,102070.0267428090,-71614.4397750439,-43433.4333805722,-10855.8122545829,-35745.4566584487,-53920.1872228185,102070.0267428090,62922.2873695166,-3221.7749324754,102070.0267428090
16637135382,289,-2,0,29572.6745508988,20720.1640689419,100826.2447735679,-23364.9954888607,-63749.8489335353,-6523.3334530188,102070.0267428090,-75344.0943729089,-43459.7642764971,-10910.8467473130,-35794.1152780436,-75697.2374378011,102070.0267428090,82984.5319035452,-3318.6541345797,102070.0267428090
16637135382,289,-2,0,-39026.2205851217,-45795.3171785703,93255.0171024605,-23395.6337494609,-63154.0941616904,-6549.4818334913,102070.0267428090,-74241.0196497283,-43510.4183983710,-11022.7895580841,-35878.2062307870,-69972.6037719370,101043.0852986495,42216.0188103464,-3430.2927529302,102070.0267428090
16637135382,289,-2,0,-75236.8482931115,-77137.6980584883,83339.0012473912,-23398.8338537253,-61657.8446510701,-6545.5151643271,97446.3992916656,-71570.5995633908,-43543.5023660326,-11065.8997079278,-35909.2338576855,-55409.5984878243,95005.1212718978,-22089.2611477626,-3432.2639198155,99887.1541004700
16637143236,290,-2,0,-64559.3171323784,-72792.9907216172,91317.9441036417,-23343.4221623937,-62411.7429785228,-6491.1255595285,102070.0267428090,-72353.5665185535,-43464.8260383754,-10913.1829451030,-35786.4252936515,-57712.3107761724,102070.0267428090,41009.2023040534,-3275.6048232201,102070.0267428090
16637143236,290,-2,0,36572.4098376263,30799.7989431893,102018.3992051893,-23340.9642876354,-63199.0903045417,-6494.2526576120,102070.0267428090,-74513.5273877749,-43444.3356369256,-10855.8487576733,-35754.1322262835,-70601.8075423482,102070.0267428090,92325.9282761511,-3259.0932586314,102070.0267428090
16637143236,290,-2,0,-28807.7887932150,-37402.1372516795,94738.7582207468,-23395.0131969229,-63407.4134418473,-6551.4043295894,102070.0267428090,-74502.7468083898,-43503.1907864582,-10996.8723638512,-35854.6982405251,-71171.3287598428,102070.0267428090,61326.8954651829,-3386.0388395851,102070.0267428090
16637143236,290,-2,0,-68406.7063647022,-71075.6054889367,83696.2326584159,-23420.2003293464,-61937.7746841787,-6569.1083284667,97367.0050698960,-72116.1260827506,-43570.2226282558,-11105.9314304753,-35943.0722225501,-59028.2958583609,93979.0559019096,-28097.8280189900,-3477.2600626667,98012.1971939324
16637143236,290,-2,0,-68627.7325774909,-75475.0917969047,89267.7115243697,-23346.2450680566,-62580.1073994618,-6492.0381367902,102070.0267428090,-72977.5381793308,-43480.5710380643,-10944.2835781825,-35817.5867652151,-61405.1215880576,100243.8501328346,23342.8989514303,-3317.5712095624,102070.0267428090
16637143236,290,-2,0,17682.5593955786,14212.8433049421,100803.9048822010,-23310.4598717003,-62326.8002870018,-6465.7437439559,102070.0267428090,-72965.1271285714,-43421.0101621160,-10813.8093651501,-35724.4308783387,-61873.4805741663,102070.0267428090,92060.7698269855,-3197.9384143993,102070.0267428090
16637143236,290,-2,0,-10926.9202748161,-21101.2198303460,96480.5275178605,-23391.9104342331,-63719.6487100208,-6551.1853110466,102070.0267428090,-75064.8213954287,-43499.0659372352,-10983.5487358301,-35850.3908758497,-74273.3978909741,102070.0267428090,66398.0264700804,-3375.4651110460,102070.0267428090
16637143236,290,-2,0,-57059.3313261693,-61206.6786205722,86639.8418738220,-23419.9204723195,-62453.6728617746,-6572.1137495820,99579.8832526003,-73148.4578166027,-43564.8323385632,-11097.8885828753,-35947.8176243110,-64900.2803327509,95114.0343261600,-13792.0113426238,-3491.1920755290,98302.6036140056
16637207853,291,-2,0,-72534.6826857630,-76809.9368091687,86810.2139647369,-23351.2824945413,-62075.5373476080,-6497.9273020525,100629.1037496426,-72203.2346243061,-43494.2231938997,-10968.4729594665,-35840.4985383327,-57969.0005083492,98558.0035703192,8601.4057226218,-3338.7916728216,102070.0267428090
16637207853,291,-2,0,-18551.4911287953,-22555.5151223209,97435.9715754884,-23307.4179474946,-61813.3721518609,-6463.1520245326,102070.0267428090,-71777.5477509554,-43416.6297912598,-10821.3290017866,-35723.0924316881,-55060.2274089472,102070.0267428090,78485.1001338736,-3195.7847320616,102070.0267428090
16637207853,291,-2,0,13637.1408974614,3454.9566743903,98987.2312434453,-23377.1631856837,-63855.4402065648,-6536.3772240130,102070.0267428090,-75420.4345027760,-43475.5457792765,-10942.4340882654,-35820.8477079636,-76278.5613212140,102070.0267428090,74996.4997777679,-3350.6795126177,102070.0267428090
16637207853,291,-2,0,-45636.6504119992,-51317.9184063863,90836.0303032723,-23402.7031813150,-62900.7748815336,-6555.4683403282,102070.0267428090,-73928.7357107675,-43531.4685138747,-11051.4201487085,-35907.6398894017,-68843.9647177314,98334.3491350167,18418.9727426967,-3467.3677251497,101292.0972141310
16637207853,291,-2,0,-75928.5940251926,-78369.7138649017,84332.0678235956,-23377.0050056250,-61713.9133980302,-6521.4839631018,98494.3178451479,-71626.9603350747,-43519.1304692962,-11019.7354661815,-35871.6235068058,-55225.6715826487,96420.2730831933,-9916.9162646342,-3386.9392491500,101705.7624030206
16637207853,291,-2,0,-51971.0317010546,-58768.5276988879,93480.5940338610,-23318.5757254812,-61957.8513839365,-6468.5666496188,102070.0267428090,-71702.0471921691,-43427.7875692464,-10860.8861841580,-35742.8041005413,-54322.5972921468,102070.0267428090,57035.6164850613,-3226.8853651410,102070.0267428090
16637207853,291,-2,0,33795.3520563326,25664.2156482207,101277.0944439484,-23354.9206358913,-63641.2522393906,-6509.0972477360,102070.0267428090,-75199.1771037477,-43443.1066995465,-10888.9205576381,-35776.2530991076,-74833.3187956754,102070.0267428090,85966.4085254595,-3301.4733466657,102070.0267428090
16637207853,291,-2,0,-36721.5371298883,-43995.3497875525,93706.2318037456,-23389.0753608733,-63225.1778465301,-6538.9081049522,102070.0267428090,-74307.5282805625,-43495.8171621835,-11006.3996704636,-35861.7676723792,-70206.7954326882,101754.4818610997,48775.1009566311,-3414.9979580237,102070.0267428090
16637215084,292,-2,0,-74277.8147649208,-76222.0423694715,83032.6794798736,-23393.2610485804,-61665.0844306797,-6534.9536034848,97113.8196344042,-71618.5646242669,-43531.3225015128,-11065.7050247786,-35907.3965354652,-55923.1239645398,94477.2135775377,-25399.0450313583,-3439.6618794838,99148.8182572539
16637215084,292,-2,0,-66051.0767628711,-74371.1044964623,90688.1927868736,-23333.7731788131,-62525.7542977537,-6477.7532607201,102070.0267428090,-72585.3854784242,-43443.9219352336,-10911.6741506970,-35786.0602627468,-59063.7281915093,102035.7138377683,36220.6903932623,-3286.7869366004,102070.0267428090
16637215084,292,-2,0,34409.2853672310,29383.1626728815,101919.2568114759,-23319.5978120143,-62966.5777859521,-6467.4593892079,102070.0267428090,-74150.2364637323,-43413.7460471127,-10832.3894381987,-35734.1650357970,-68588.0902212418,102070.0267428090,93485.1082493823,-3241.6691167809,102070.0267428090
16637215084,292,-2,0,-25279.0350375936,-34471.7299873263,94993.3794444637,-23381.9085874446,-63477.5602140315,-6534.3330509468,102070.0267428090,-74608.9464662604,-43477.4317722840,-10989.0120317036,-35846.2295235363,-71877.6027219305,102070.0267428090,63047.9918453944,-3385.8441564360,102070.0267428090
16637215084,292,-2,0,-65644.4810058356,-68700.4102306143,84140.2927539692,-23407.2904030173,-62042.4047091592,-6553.4728380493,97658.4457441991,-72350.2325696240,-43547.4325321064,-11104.6294869152,-35940.7603601537,-60466.7488090723,93974.0184754249,-26390.6514839440,-3492.1654912748,97765.2051161235
16637215084,292,-2,0,-69289.9959801700,-75562.7843879076,88635.7213513860,-23333.3473094243,-62435.3239749656,-6475.7577584411,102035.5313223160,-72791.1290640033,-43462.2829897394,-10947.3863408723,-35816.5646786820,-60993.5127399311,99744.2445012846,19787.6074490380,-3331.0651853391,102070.0267428090
16637215084,292,-2,0,9048.5929162586,5610.6345143300,99991.7111192696,-23294.5931950432,-62119.0611991437,-6447.5773725992,102070.0267428090,-72558.0446636631,-43396.0542159322,-10809.6845159271,-35714.8062301517,-59644.3220131128,102070.0267428090,89531.6775392466,-3202.1849405905,102070.0267428090
16637215084,292,-2,0,-4975.9066095612,-15446.5139181234,96996.2918507914,-23377.3335334392,-63755.1053785628,-6533.2622936264,102070.0267428090,-75171.3617488104,-43475.0590714035,-10974.1309384892,-35840.9609108120,-74958.1350296852,102070.0267428090,68167.0757434711,-3383.8729895506,102070.0267428090
16637279014,293,-2,0,-53772.1793586642,-58432.1395525209,87634.8917846086,-23409.8699547437,-62566.5160821106,-6558.7779538641,100393.3059529108,-73372.6719659590,-43543.8673969373,-11094.2261061316,-35939.7991121047,-66218.0053955850,95737.7261299104,-6438.6219477375,-3506.5355412227,98771.2059540507
16637279014,293,-2,0,-73923.7956258573,-77702.7172281584,85992.2648812082,-23350.1508987367,-61961.0271528073,-6494.4108376707,99939.9619046816,-72014.8421743964,-43481.5201184165,-10980.9691841036,-35840.3160228803,-57104.8385122871,97904.5495801399,3420.5707631686,-3361.9346321789,102070.0267428090
16637279014,293,-2,0,-28941.3779366341,-33604.0393591855,96251.2151035353,-23303.3904398462,-61772.7807152596,-6455.8270710452,102070.0267428090,-71620.3897787903,-43400.1668974583,-10829.5787002326,-35718.4078684113,-54127.5247766814,102070.0267428090,72833.5699905217,-3212.9655199756,102070.0267428090
16637279014,293,-2,0,19865.9430811841,9908.9342555183,99572.2906097828,-23373.8414044510,-63842.6276218103,-6530.9991020173,102070.0267428090,-75435.8509746507,-43457.8174450054,-10936.5814260936,-35810.9553704466,-76365.1101487156,102070.0267428090,77618.3829214786,-3352.4316609602,102070.0267428090
16637279014,293,-2,0,-43591.7837870260,-49833.8730956794,91628.8287574679,-23396.4246497544,-63000.8785232960,-6548.4962500487,102070.0267428090,-74071.5114652879,-43515.0056200733,-11043.7301643164,-35897.7232164910,-69444.5257298214,99128.2670173200,26570.2953598379,-3463.7904222837,102070.0267428090
16637279014,293,-2,0,-76270.9321753060,-78457.4794620855,83621.3526521675,-23377.4187073170,-61653.9631557836,-6521.7029816446,97845.7309336978,-71547.6756225764,-43519.8605311056,-11039.0090979491,-35885.8353766950,-54999.2794155611,95690.1139322422,-15440.1502126850,-3409.2426374265,100846.4553179908
16637279014,293,-2,0,-57864.6868434862,-65469.8988918201,92504.5257301182,-23320.9484263617,-62091.2215088128,-6470.1727855994,102070.0267428090,-71872.5166246585,-43432.9588403962,-10883.3964232805,-35759.8510437902,-55171.4279902121,102070.0267428090,50982.5645142492,-3252.4496961660,102070.0267428090
16637279014,293,-2,0,36060.5148322851,28586.3975495216,101542.5449178377,-23335.9998673317,-63504.5725009785,-6491.3932488586,102070.0267428090,-75015.2136954816,-43428.7001465081,-10876.8380346929,-35761.2868320153,-73748.7876424530,102070.0267428090,88151.7633779504,-3294.7324426258,102070.0267428090
16637289804,294,-2,0,-35100.7147391946,-42953.6854302373,93918.0105669489,-23376.4087884807,-63274.2623355138,-6527.3731283641,102070.0267428090,-74353.1328082549,-43484.6958872873,-11001.6542687026,-35850.7437390576,-70422.1028279702,102070.0267428090,53432.2504125217,-3412.5887540528,102070.0267428090
16637289804,294,-2,0,-72807.0200760541,-74948.0723444126,82918.9115145791,-23391.7644218712,-61701.2224902439,-6534.1505354944,96927.8728915560,-71717.5123348310,-43538.3554302765,-11083.9930731035,-35916.6196496570,-56687.5838528347,94063.8160779782,-27524.5469831771,-3461.3082121318,98506.0353371884
16637289804,294,-2,0,-66930.3753737810,-75109.8783767641,90078.3478221077,-23327.5433180397,-62623.3635616674,-6469.4792268805,102070.0267428090,-72816.7177304220,-43453.0355401540,-10928.5142430999,-35793.7015763517,-60390.1531575719,101175.7618648069,31219.9251790919,-3303.3471719764,102070.0267428090
16637289804,294,-2,0,29710.4493820250,25274.5451574660,101528.5642341881,-23306.0429977536,-62722.7736447108,-6453.1380100473,102070.0267428090,-73734.6487787447,-43410.2660858214,-10825.1374908922,-35721.7418173408,-66325.3123138665,102070.0267428090,93517.4499875377,-3230.1584755864,102070.0267428090
16637289804,294,-2,0,-20925.7251390687,-30592.8872587152,95320.2767873089,-23379.9252528625,-63549.1914452282,-6531.8508407949,102070.0267428090,-74744.7744658949,-43479.4151068662,-10984.8506793902,-35837.0307447382,-72645.3600560645,102070.0267428090,64326.6099306396,-3383.1307600444,102070.0267428090
16637289804,294,-2,0,-62370.9446910754,-65874.7425005130,84779.9485759512,-23409.4805884454,-62183.7811785449,-6553.7405273794,98116.3161756464,-72630.9900061166,-43550.0729223170,-11098.5456385037,-35936.2704800261,-62095.8939043928,94120.8217375937,-23317.9065021559,-3490.8392123211,97657.2776453041
16637289804,294,-2,0,-70629.0753509284,-76285.0832067111,87864.8490868654,-23341.4874985988,-62314.5109132106,-6481.1237127401,101418.7264349674,-72587.0159497985,-43471.7737932613,-10947.4715147501,-35815.2870705156,-60016.9455606186,99198.8518265899,15541.9451643057,-3329.0331799696,102070.0267428090
16637289804,294,-2,0,-545.0519791837,-4030.0385293330,99038.3234024048,-23297.4039330093,-61965.9185669302,-6449.7553903305,102070.0267428090,-72202.4193886189,-43393.7180181422,-10805.2311388899,-35701.0567327418,-57614.2269720827,102070.0267428090,86033.5133734380,-3186.9753195618,102070.0267428090
16637321188,295,-2,0,1856.9122121492,-8704.0280776265,97593.7257647978,-23377.6133904661,-63806.4287237620,-6535.9756900179,102070.0267428090,-75284.9837017430,-43472.8567182786,-10962.6933034756,-35824.7048678565,-75596.1725479898,102070.0267428090,70458.0340366883,-3367.4100957492,102070.0267428090
16637321188,295,-2,0,-50816.4876203129,-55952.9469894528,88588.5958615908,-23410.9407120642,-62691.0159560029,-6563.3773432631,101199.8417368195,-73597.2633139169,-43540.9228143061,-11082.3260986388,-35922.1559517115,-67337.4578386893,96413.0333035837,1497.2472617598,-3487.3592510298,99319.0808388974
16637321188,295,-2,0,-74884.6908116619,-78128.9516478661,85169.4000481632,-23353.3510030012,-61839.0824952478,-6494.6785270008,99255.7966477212,-71824.5393960856,-43490.0740092830,-10987.5397403880,-35838.6368807188,-56184.6199369616,97249.7449756133,-1534.4682463412,-3356.2523177626,102070.0267428090
16637321188,295,-2,0,-37623.2973091333,-43032.4590994690,95173.2058358100,-23305.0695820077,-61786.9804174520,-6455.2065185072,102070.0267428090,-71556.0226625970,-43406.6157767745,-10836.3926104534,-35716.2785214673,-53701.6432201816,102070.0267428090,67590.4120879415,-3206.9060069578,102070.0267428090
16637321188,295,-2,0,25658.5576691980,16182.8907621510,100135.8861589246,-23364.8129734084,-63805.2119540797,-6520.0238394830,102070.0267428090,-75409.2280540021,-43452.3419814351,-10919.4493089668,-35790.2702858476,-76193.0467479424,102070.0267428090,80356.2242159120,-3328.8871676078,102070.0267428090
16637321188,295,-2,0,-41438.2352940303,-48094.3304870843,92345.4087587646,-23395.2565508594,-63080.1875711879,-6543.7143451973,102070.0267428090,-74167.4537547368,-43506.5612384781,-11031.0514242269,-35877.5735105522,-69786.0851473382,99961.3283803027,34770.4712797232,-3441.9859095770,102070.0267428090
16637321188,295,-2,0,-75779.2477143878,-77789.5459126870,83199.8758019176,-23385.3277102519,-61621.0982066648,-6527.5069730291,97424.4731019907,-71512.0242708852,-43526.4919258741,-11045.0686109669,-35888.0255621231,-54965.9520939630,95144.8551022125,-19009.9699450838,-3415.1804734761,100153.8091763448
16637321188,295,-2,0,-61492.7533405764,-69643.9177776589,91704.0616269242,-23332.8727692482,-62258.2961538886,-6479.5784152435,102070.0267428090,-72117.0751631028,-43445.1508726127,-10895.5641201034,-35767.4193512141,-56476.4621452599,102070.0267428090,45880.2963731818,-3261.3807856341,102070.0267428090
16637361162,296,-2,0,36999.9462008940,30374.1850760196,101690.2120864809,-23343.3491562127,-63353.8147373422,-6497.6352773288,102070.0267428090,-74771.2757095753,-43436.2806216288,-10866.0452876110,-35756.3102440148,-72255.5192175542,102070.0267428090,90375.4099723430,-3273.5363147602,102070.0267428090
16637361162,296,-2,0,-32091.3634578542,-40364.2048631661,94167.0711532177,-23390.9856892745,-63340.3694323529,-6543.9820345274,102070.0267428090,-74416.6360179738,-43496.3768762373,-10996.8845315481,-35855.1849483980,-70676.0426606650,102070.0267428090,58193.7135332753,-3396.4422203687,102070.0267428090
16637361162,296,-2,0,-70370.1954333235,-72809.3562738441,83095.4039569959,-23411.2935752720,-61812.4595745992,-6555.1154771204,96965.7144286753,-71901.4635754003,-43553.9300822098,-11094.7736524886,-35931.3547305096,-57814.7627834216,93828.2494674861,-28120.5694443521,-3470.4461524459,98030.2662237145
16637361162,296,-2,0,-67776.6021847261,-75370.4009334401,89481.2546036123,-23338.6524252391,-62654.9874057102,-6481.7807683685,102070.0267428090,-72965.8936934712,-43464.6556906199,-10939.3678286660,-35805.6989254191,-61230.3204554992,100443.5342053959,26631.8395703683,-3314.0182420901,102070.0267428090
16637361162,296,-2,0,23923.3467606719,20071.7353375505,101048.7189422786,-23308.3061893626,-62489.6162381896,-6458.9663368255,102070.0267428090,-73301.2962563956,-43410.2417504277,-10819.8567104711,-35720.1356813602,-63820.8352768004,102070.0267428090,93092.1403127886,-3213.6469109977,102070.0267428090
16637361162,296,-2,0,-14992.2329572388,-25014.9960165358,95826.2826273877,-23388.8563423305,-63640.2544882511,-6541.8161844929,102070.0267428090,-74920.9992189816,-43486.4845387203,-10988.8295162513,-35842.0560035260,-73534.1616381931,102070.0267428090,66015.0117094879,-3381.6341333352,102070.0267428090
16637361162,296,-2,0,-59003.4007506612,-62922.2265310325,85570.9462110171,-23421.2710866668,-62333.2004955307,-6570.3859366332,98725.0417123045,-72924.2558349431,-43558.2617822788,-11108.7665038350,-35942.6220177676,-63664.3343602637,94449.9214335638,-18476.8423087866,-3500.9749037746,97752.3681959753
16637361162,296,-2,0,-71256.5391406939,-76165.9127840272,87158.8428141078,-23352.0733948348,-62181.6396639041,-6494.7028623945,100876.6920445958,-72374.0569200033,-43482.6760496147,-10966.1367616765,-35827.8806367273,-58782.7395687771,98755.0472526699,12550.4560619013,-3339.6799146897,102070.0267428090
16637374911,297,-2,0,-9234.0772866275,-12875.8324426436,98170.1947371783,-23308.4156986340,-61856.2511154650,-6459.8180756031,102070.0267428090,-71934.8030646951,-43403.7563680211,-10816.7904508717,-35710.5962070510,-55949.5643697360,102070.0267428090,82808.3679889427,-3194.8478194062,102070.0267428090
16637374911,297,-2,0,9255.3220852804,-1142.9482656694,98295.8140391784,-23383.6729034839,-63848.3464393170,-6538.3362232015,102070.0267428090,-75391.9499245135,-43473.7936309339,-10956.7554674260,-35822.5390178220,-76133.1938472703,102070.0267428090,73431.3446000392,-3365.0008917783,102070.0267428090
16637374911,297,-2,0,-47413.4140051756,-52909.4166477367,89710.5061794533,-23405.6599316430,-62798.4810543431,-6553.8135335603,102070.0267428090,-73779.0000336643,-43528.9619683292,-11067.9073779036,-35913.5777254513,-68208.3729064882,97320.0742632499,11107.0995293703,-3480.6305146867,100227.0100404316
16637374911,297,-2,0,-74878.7773110059,-77667.6742613084,84633.7415309268,-23362.9756511881,-61741.5462375151,-6502.3685113929,98788.8612821408,-71679.4882822593,-43496.8027456261,-11003.6376032848,-35856.0366871756,-55453.1588424505,96771.3111365352,-4740.5346822182,-3377.2659301758,102070.0267428090
16637374911,297,-2,0,-44613.0307490724,-50836.7225001294,94206.7865156478,-23312.1633492555,-61861.5805666734,-6456.2407727371,102070.0267428090,-71607.3946785834,-43415.0479906728,-10850.0934370761,-35732.3520489704,-53853.4230703510,102070.0267428090,62858.2244457438,-3222.0912925928,102070.0267428090
16637374911,297,-2,0,30902.7984967955,22098.5329327416,100683.9557269204,-23354.2635802629,-63720.9263181872,-6505.7389634129,102070.0267428090,-75316.8630674192,-43437.3270435556,-10900.0418325343,-35776.8736516455,-75675.4815958817,102070.0267428090,83516.1750808300,-3313.1421679189,102070.0267428090
16637374911,297,-2,0,-38239.6033209122,-45239.9348247840,93060.2001086283,-23383.5147234252,-63137.3270754684,-6532.4105548488,102070.0267428090,-74228.8641206021,-43491.5828036891,-11012.5930281465,-35862.9844420615,-69980.5614456592,100889.6628094091,43499.2119495971,-3422.3229115111,102070.0267428090
16637374911,297,-2,0,-74704.3533770491,-76681.2390798725,83004.6086033031,-23389.0996962670,-61625.2108881910,-6529.3929660367,97152.3303948488,-71544.3173382533,-43526.0173856980,-11051.4809871926,-35893.2820071506,-55405.4128001172,94690.2091104233,-22126.5308031312,-3421.3373280685,99520.5292274980
16637394869,298,-2,0,-64087.9770605481,-72498.3986138370,90999.4303039076,-23334.8196007398,-62410.8547366547,-6481.6225883098,102070.0267428090,-72383.4747173443,-43447.9007720947,-10909.1067666673,-35775.9610743838,-57887.9514798116,102070.0267428090,40779.9142251219,-3273.3903023983,102070.0267428090
16637394869,298,-2,0,36828.5033526588,31153.8789207369,101794.3554035884,-23331.0597824215,-63141.6587755374,-6482.7541841143,102070.0267428090,-74448.2233589261,-43423.1881798473,-10851.1155236092,-35739.7743440324,-70285.1554002279,102070.0267428090,92645.0504607264,-3254.7250554719,102070.0267428090
16637394869,298,-2,0,-27475.0487925014,-36239.4043109760,94559.7105619972,-23391.4967325411,-63402.0839906388,-6546.0870460777,102070.0267428090,-74513.1988599607,-43489.7211460752,-10996.0571281641,-35847.7748210328,-71233.4691875176,102070.0267428090,62572.0280487714,-3388.0100064704,102070.0267428090
16637394869,298,-2,0,-67343.2618300739,-70150.3373194297,83525.0088287235,-23415.4549275855,-61931.9220220069,-6563.3043370822,97209.7254207626,-72150.1469630676,-43555.0981811048,-11104.4348037660,-35935.3944058548,-59172.8115935270,93780.0532203704,-27062.3813547513,-3481.5795950389,97751.1027555058
16637394869,298,-2,0,-67721.9327229006,-74554.0458181953,88996.2137051593,-23342.1688896209,-62542.5335516726,-6488.3391569561,102070.0267428090,-72959.7733419693,-43465.7629510308,-10944.1497335174,-35808.3393156297,-61331.6652023375,99995.7386269180,24134.2859527944,-3321.1241770347,102070.0267428090
16637394869,298,-2,0,17668.2866872053,14250.6483389710,100578.9363356416,-23307.7221399151,-62275.4404387122,-6461.3512054028,102070.0267428090,-72891.5247304894,-43407.8447141536,-10813.7241912723,-35714.8427332422,-61439.0572944968,102070.0267428090,92320.5136510649,-3203.0245116713,102070.0267428090
16637394869,298,-2,0,-8271.7463125978,-18528.5063494968,96452.5174797741,-23390.6084906730,-63716.4486057564,-6544.1280468893,102070.0267428090,-75079.0819361052,-43485.2921044316,-10984.6681639378,-35841.9951650419,-74395.8779271939,102070.0267428090,68380.8865120439,-3380.7580591640,102070.0267428090
16637394869,298,-2,0,-55256.0786570093,-59603.0248500958,86647.7630444538,-23421.4414344224,-62461.3020076826,-6569.3516824032,99574.0914289126,-73175.3970973687,-43554.6723117160,-11106.3572998641,-35945.9559666971,-65090.4492663966,95074.0269390062,-11299.2761329918,-3505.0632499071,98228.0278001778
16637457419,299,3,0,-71483.4788541386,-75750.4954467952,86594.9430725454,-23362.1239124105,-62057.8455164275,-6501.9061389136,100444.4224472640,-72168.8122099940,-43490.6702264274,-10978.0854399566,-35839.4764517996,-57666.7062484801,98387.1082684409,10015.9613167729,-3350.0954631702,102070.0267428090
16637457419,299,3,0,-18107.3336916675,-22262.7968398514,97230.0576421537,-23313.5382989965,-61800.6204055905,-6461.9839256376,102070.0267428090,-71747.4692044091,-43406.9321368919,-10825.6607018556,-35715.9743290467,-54731.0912098866,102070.0267428090,78988.8184469498,-3201.3697049033,102070.0267428090
16637457419,299,3,0,16279.4414364410,6161.5878264728,99012.4548789592,-23385.3885487360,-63863.7020727076,-6537.8738507223,102070.0267428090,-75433.5147768607,-43468.3425027573,-10948.0798995912,-35815.3114059092,-76450.2231879921,102070.0267428090,76763.5657165765,-3353.9404553662,102070.0267428090
16637457419,299,3,0,-43501.0127687269,-49372.5348706375,90888.6677597283,-23413.2282390669,-62909.8519833635,-6564.0709019821,102070.0267428090,-73945.1255983880,-43525.2508207982,-11061.2516477414,-35905.4740393672,-68926.5468760687,98381.0852585136,21599.6208599105,-3468.5358240447,101353.2277229695
16637457419,299,3,0,-74914.4895011813,-77396.3467898536,84214.1628413813,-23383.0401832492,-61691.0016249126,-6527.1662775181,98376.1695089971,-71604.2189097126,-43511.9271927771,-11025.6611345343,-35870.0295385220,-55079.2090159910,96299.8372200398,-8256.7070393247,-3388.3141988910,101576.2007672499
16637457419,299,3,0,-50706.2117840066,-57694.5702742046,93320.8078391821,-23332.2643844070,-61980.1304368194,-6481.9632838208,102070.0267428090,-71738.3434317919,-43430.4766302443,-10872.7983593477,-35746.8072727960,-54311.6463650061,102070.0267428090,58218.8763303052,-3234.8430388632,102070.0267428090
16637457419,299,3,0,35823.2447442378,27901.8307585661,101294.5915919798,-23368.6092948171,-63625.8357675159,-6525.1586075423,102070.0267428090,-75195.9404963928,-43447.4870704027,-10899.2630999376,-35778.0904213278,-74766.3356246651,102070.0267428090,87526.2099165861,-3306.6811209059,102070.0267428090
16637457419,299,3,0,-34303.2682248127,-41658.5436127065,93733.5847862036,-23403.0317091292,-63227.9155783152,-6552.8157824208,102070.0267428090,-74324.2588636940,-43500.5017254603,-11013.0310652321,-35864.0551993819,-70265.5897437367,101830.0919291574,52167.5156693514,-3418.4170808310,102070.0267428090
16637465198,300,3,0,-73146.8638483189,-75208.6192364823,83013.8803882822,-23416.6838649646,-61677.5319845296,-6560.2989159669,97057.7752228377,-71652.8166908235,-43550.8881580041,-11086.1589231380,-35923.9932739317,-55971.1011931126,94381.6971574776,-23844.8651161639,-3455.5285561409,99029.4044806336
16637465198,300,3,0,-64691.1662951518,-73050.5808633589,90541.9735741523,-23355.0909836469,-62553.6304911751,-6499.2049102189,102070.0267428090,-72649.7404269207,-43466.9188822290,-10933.9532035798,-35801.2577160787,-59208.6332929737,101850.7405106660,37441.0252107257,-3299.6725275359,102070.0267428090
16637465198,300,3,0,35218.5710506217,30390.9399945448,101847.5525740983,-23338.7862699041,-62943.3253173234,-6484.8591956647,102070.0267428090,-74105.7878672381,-43433.6645668119,-10847.5260530464,-35745.2741429963,-68234.6794670194,102070.0267428090,94361.1337498468,-3246.9255618084,102070.0267428090
16637465198,300,3,0,-22849.0243050839,-32085.6689757410,95012.0811944806,-23407.0713844745,-63507.8699468175,-6558.5954384117,102070.0267428090,-74660.5983392738,-43501.5603150839,-11003.6254355880,-35857.5698169753,-72051.3574325621,102070.0267428090,65402.2099943940,-3391.5508062459,102070.0267428090
16637465198,300,3,0,-64184.0166915715,-67377.3557165717,84187.7589392755,-23433.4144480961,-62079.5648552564,-6579.8280693678,97665.4786729627,-72414.3684995777,-43571.0135285493,-11116.2861404716,-35954.9843977398,-60669.0854395410,93935.7389012199,-24455.7321674629,-3496.7648806739,97694.7054807314
16637465198,300,3,0,-67977.1866668523,-74126.4972872307,88515.4680036849,-23355.8332131531,-62428.3518846861,-6501.4194310407,101939.2605050529,-72773.3642266418,-43481.6782984752,-10955.8185547706,-35824.3155015582,-60799.2676278497,99662.7209325709,21667.9911483587,-3335.0440222002,102070.0267428090
16637465198,300,3,0,9537.6734900567,6207.9102482777,99891.4492974485,-23320.1818614618,-62112.8800091576,-6472.6306603576,102070.0267428090,-72523.7560940160,-43416.3621019297,-10817.8855435858,-35722.5327176343,-59305.1839672638,102070.0267428090,90167.9994122991,-3205.0443493439,102070.0267428090
16637465198,300,3,0,-2041.4109990754,-12416.1490243697,97096.7361880648,-23400.7441821265,-63778.6012011279,-6556.1375636535,102070.0267428090,-75206.6237342033,-43494.0893492346,-10980.7866686513,-35846.7405668029,-75110.0852276101,102070.0267428090,70581.9498611332,-3381.5732948511,102070.0267428090
16637494864,301,3,0,-51507.9778307607,-56260.2543404130,87857.3659533193,-23425.9313145500,-62586.6171172621,-6572.5517866676,100552.9339675310,-73408.2989822566,-43555.2441934667,-11095.0535095155,-35941.1375587552,-66350.2925954440,95882.9597591890,-3026.2765476212,-3501.4251085571,98938.6334623344
16637494864,301,3,0,-72449.5453110929,-76148.4886421768,86016.5637717637,-23361.5033598725,-61937.3244793962,-6502.4901883611,99962.3139637454,-71987.9515644177,-43496.7540748388,-10988.1724606228,-35849.9650064609,-56896.6857227370,97937.2928522904,6282.2792112595,-3362.9445510152,102070.0267428090
16637494864,301,3,0,-27545.3050739570,-32272.5526312446,96225.5290955421,-23312.0538399841,-61771.5639455773,-6459.4165416079,102070.0267428090,-71620.8764866632,-43412.2615881003,-10837.5485416516,-35724.8567477274,-54018.3927038764,102070.0267428090,74434.6442092717,-3211.9312657456,102070.0267428090
16637494864,301,3,0,23122.5297942700,13449.7827017818,99782.7309263356,-23370.1059215264,-63827.9898825323,-6523.2969499284,102070.0267428090,-75433.1619136528,-43459.8129472844,-10934.9266193256,-35807.3902352775,-76331.8436656017,102070.0267428090,80527.9712565678,-3345.2648875314,102070.0267428090
16637494864,301,3,0,-40396.3884212628,-46639.7918411730,91910.3284234667,-23397.1182084733,-63006.4269930472,-6545.3569842684,102070.0267428090,-74084.9567702772,-43516.4535759952,-11047.7576719648,-35895.4113540946,-69504.5368105521,99391.9775105636,31410.1792866154,-3459.7385792417,102070.0267428090
16637494864,301,3,0,-75217.5624936471,-77437.0720711200,83727.9903471238,-23380.3267868576,-61649.7653003797,-6519.5371316101,97892.2723740455,-71549.4156032221,-43524.3990820206,-11041.7103266438,-35885.1783210665,-55001.0193962067,95714.1938042548,-13188.7734372328,-3409.9118607517,100867.4324273135
16637494864,301,3,0,-56560.3462471572,-64204.3245775690,92438.0049315872,-23328.6262430570,-62110.5803144581,-6473.1052005337,102070.0267428090,-71909.4455845161,-43439.4077197123,-10885.4284286499,-35759.1088142840,-55319.7157113932,102070.0267428090,52509.2454346238,-3249.8093059555,102070.0267428090
16637494864,301,3,0,37714.8227246355,30535.3462204395,101619.8584634506,-23351.4650099936,-63491.1271959891,-6503.6826226498,102070.0267428090,-75000.6489623845,-43441.3545512040,-10881.3887533047,-35766.1782461382,-73559.9936585482,102070.0267428090,89525.4233430796,-3289.6098422633,102070.0267428090
16637522611,302,3,0,-33307.3909106422,-41149.2038236982,93963.1892252525,-23391.4602294506,-63296.6874007585,-6541.6458367374,102070.0267428090,-74382.6638084441,-43496.6932363547,-11005.0003853290,-35856.4747242612,-70506.0356006548,102070.0267428090,55959.7000611895,-3403.1831244086,102070.0267428090
16637522611,302,3,0,-72033.9941291958,-74217.4143178918,82890.9744826736,-23407.6432662251,-61720.6664697669,-6548.8612809534,96877.1457635011,-71749.0996757834,-43551.0828411533,-11087.8258976027,-35925.6480806996,-56791.3256359471,93977.9851445892,-26569.3219440920,-3459.0571882196,98382.4845436482
16637522611,302,3,0,-65993.0855198129,-73992.8959761148,89980.1910118370,-23338.6402575422,-62629.0823791741,-6479.3350613071,102070.0267428090,-72850.1545612914,-43462.4898405854,-10927.8936905620,-35799.1892076188,-60459.1074954675,101063.0403214392,32149.9752534503,-3301.6680298148,102070.0267428090
16637522611,302,3,0,30061.0128951908,25897.3608870451,101490.2724922863,-23311.2142689033,-62690.2615587999,-6457.6400578718,102070.0267428090,-73689.7134743776,-43417.2381761009,-10820.0148905298,-35726.2560328621,-65965.1849909979,102070.0267428090,94140.9957789262,-3227.6762654345,102070.0267428090
16637522611,302,3,0,-18897.3457432906,-28438.4505238514,95389.8030069552,-23382.9428416746,-63555.2144551556,-6534.2722124627,102070.0267428090,-74778.1869613707,-43488.7842334198,-10988.1846283196,-35846.0348403871,-72787.0285501740,102070.0267428090,66137.1510501966,-3389.2876146368,102070.0267428090
16637522611,302,3,0,-60905.7836458377,-64411.4674482828,84979.0485990650,-23410.4418364944,-62184.8276004717,-6552.8522855113,98250.8543994176,-72661.2023973279,-43552.5186293784,-11103.3153756583,-35941.1010556648,-62260.5836808913,94225.9263027503,-20924.1555061786,-3496.9838992167,97757.6003056092
16637522611,302,3,0,-68904.1339785209,-74270.3681344652,87924.3126212391,-23336.0607058158,-62270.6220307703,-6472.7280019322,101491.5257650591,-72544.0274769230,-43468.0748134272,-10945.7437018012,-35816.3699955328,-59751.5802606071,99293.7233587183,18584.5264256696,-3332.9025075593,102070.0267428090
16637522611,302,3,0,614.1279940475,-2632.4082014626,99104.3696607597,-23303.1957566970,-61937.0567900661,-6448.8549807656,102070.0267428090,-72156.6931839583,-43399.1326432284,-10815.3181595561,-35711.0464118334,-57292.4157265095,102070.0267428090,87269.2889981697,-3200.0069228592,102070.0267428090
16637562738,303,3,0,5812.5696108035,-4381.5146197605,97913.5780111825,-23386.0821074549,-63802.4133838104,-6530.7314126872,102070.0267428090,-75296.7620322677,-43474.7548789830,-10963.8248992801,-35832.3096783709,-75662.0971293765,102070.0267428090,74361.5528544563,-3371.3280941262,102070.0267428090
16637562738,303,3,0,-47323.6650734096,-52333.2153646862,89105.4796226294,-23416.9758896883,-62707.8195453154,-6556.8919608565,101609.1873933369,-73628.4004500868,-43540.2170878904,-11082.8614772990,-35927.4367321326,-67498.2052814172,96811.6957222905,6596.1449508073,-3491.7761249765,99797.0523054962
16637562738,303,3,0,-73285.3809089512,-76392.6456466259,85431.9546102086,-23370.0207476486,-61826.0752273441,-6501.9791450946,99466.6384982692,-71817.7498212584,-43499.7108251668,-11002.3234920279,-35855.4404700313,-56029.7616594960,97458.8346778187,2329.1526935444,-3372.3015098720,102070.0267428090
16637562738,303,3,0,-35479.7263275325,-40774.8159601531,95312.0270888629,-23318.1741914860,-61788.9880874278,-6460.6454789870,102070.0267428090,-71571.5729791367,-43413.7703825064,-10849.8987539269,-35729.1032739187,-53613.6464367581,102070.0267428090,70150.5563379726,-3217.5770770715,102070.0267428090
16637562738,303,3,0,29359.1679747466,20368.0187551892,100514.7152318101,-23371.3226912087,-63789.5156251781,-6519.1355976149,102070.0267428090,-75418.9743791573,-43452.4514907065,-10925.6548343465,-35793.6407378675,-76173.2499052115,102070.0267428090,83626.3049047745,-3333.1701968894,102070.0267428090
16637562738,303,3,0,-37825.3662502719,-44336.0818016854,92749.9725104306,-23401.1092130312,-63090.3475980350,-6542.8991095101,102070.0267428090,-74199.0289279923,-43508.4228960920,-11042.2822083944,-35881.9173783180,-69888.8900177952,100357.9831290338,40182.0666094234,-3448.2644411376,102070.0267428090
16637562738,303,3,0,-74658.6150046916,-76686.1061586016,83474.0626821258,-23393.6990856660,-61616.0729478769,-6525.5966446279,97613.0115642622,-71519.4222305535,-43526.9421306566,-11061.0691322891,-35892.2477529207,-54980.9670318425,95314.7283175576,-16252.3926464036,-3422.0430544842,100338.6608264790
16637562738,303,3,0,-59124.8343649541,-67163.7883019355,91865.8554915788,-23331.3031363580,-62261.3867488817,-6469.4670591837,102070.0267428090,-72148.2001315759,-43440.0039368566,-10906.2473579140,-35767.5531958792,-56547.4119854344,102070.0267428090,48801.4561879496,-3270.5065582513,102070.0267428090
16637582535,304,3,0,39541.8997441748,33335.4982903032,102001.6077835736,-23340.5019151561,-63318.6135904334,-6481.3305635860,102070.0267428090,-74743.1683299143,-43428.8339911732,-10869.9511182911,-35751.3823268015,-71989.1074956159,102070.0267428090,92599.3972622467,-3279.4619831130,102070.0267428090
16637582535,304,3,0,-28596.4602347942,-36745.7143434755,94491.9364906934,-23392.0199435045,-63337.9358929883,-6535.5619883259,102070.0267428090,-74439.9006542993,-43487.2511036201,-11002.3113243311,-35848.4440443581,-70775.7447684322,102070.0267428090,62835.3978465039,-3401.9055162422,102070.0267428090
16637582535,304,3,0,-68725.5000214632,-71245.8315674897,83546.2779627700,-23418.3386717325,-61825.3208301411,-6556.5390976487,97281.2836457783,-71946.7395752784,-43556.4122923617,-11101.8674197364,-35935.6255920945,-57943.2658295687,94114.6040445172,-24715.5733331168,-3481.9811290340,98357.2852435279
16637582535,304,3,0,-64999.8485958530,-72309.1300897561,89763.3869898459,-23351.4528422968,-62642.0166408969,-6486.8060271564,102070.0267428090,-72993.0398250832,-43468.8048752365,-10940.1465612627,-35809.0207066517,-61270.2913395626,100703.8134081355,30854.9794482814,-3321.5987172108,102070.0267428090
16637582535,304,3,0,25563.5401247077,22051.4561137337,101280.9637715381,-23319.6464828016,-62472.2164317328,-6463.2250307135,102070.0267428090,-73281.3899043933,-43422.2999379793,-10815.1964825879,-35726.2073620748,-63522.0453136162,102070.0267428090,94635.5518162946,-3214.9001837704,102070.0267428090
16637582535,304,3,0,-11506.8935438817,-21255.6400707260,96175.4468554189,-23403.8347771196,-63654.9408983164,-6550.7107708705,102070.0267428090,-74952.9029200513,-43496.6810686579,-10986.2256291312,-35847.7869887296,-73705.3611324919,102070.0267428090,69665.0165639499,-3386.9635845437,102070.0267428090
16637582535,304,3,0,-56615.7944415794,-60531.2984407180,86080.8822171697,-23435.6776397052,-62361.7459122773,-6576.3846111669,99098.5169985879,-72978.3655827148,-43568.7746723338,-11108.7665038350,-35950.4823499153,-63932.4617274540,94784.0342206250,-14954.1967369703,-3507.4602861813,98126.5127055840
16637582535,304,3,0,-69978.1157385978,-74661.3770718704,87349.2916047805,-23364.3992717164,-62173.1222761280,-6498.1828236858,101048.3295759802,-72353.4326738885,-43490.0740092830,-10967.7307299603,-35834.3781868308,-58648.1891773090,98933.2918434291,15017.3592511782,-3345.7515954044,102070.0267428090
16637659213,305,3,0,-8581.4628675290,-12032.0270033662,98272.0870303737,-23314.5847209233,-61850.6783103201,-6460.4629635347,102070.0267428090,-71905.0408782662,-43412.6509543987,-10819.5403503537,-35716.0229998340,-55706.3077748518,102070.0267428090,83715.7739795136,-3198.0114205802,102070.0267428090
16637659213,305,3,0,12501.5905914604,2498.5878718038,98671.4186724058,-23389.5377333526,-63858.9323355530,-6540.7940979598,102070.0267428090,-75408.5588306768,-43481.3619383578,-10955.3561822914,-35828.7688785954,-76227.8098577655,102070.0267428090,76527.1108642163,-3362.3483338709,102070.0267428090
16637659213,305,3,0,-44719.9239656619,-50031.0871257856,90185.0341878513,-23420.7357080066,-62836.3590945530,-6563.8153803488,102070.0267428090,-73823.1809408284,-43542.6384595582,-11067.9803840845,-35921.0121882101,-68400.8050317430,97712.3608088215,15278.4293542112,-3478.9878756156,100671.3864961023
16637659213,305,3,0,-73998.5296197439,-76646.5854793207,84881.1229750340,-23382.6386492540,-61753.4827480984,-6518.2838588373,98984.8098717775,-71681.9948278049,-43516.0885450905,-11014.3330087922,-35869.0561227761,-55360.7208496866,96965.6535901912,-2179.9645627983,-3380.4538667434,102070.0267428090
16637659213,305,3,0,-43197.6964223246,-49241.5496143386,94372.7173972223,-23333.7001726321,-61889.2012384615,-6476.0011123776,102070.0267428090,-71633.4578851782,-43431.5473875647,-10860.5576563438,-35745.6513415979,-53814.7906329381,102070.0267428090,65012.3204850965,-3228.1508056106,102070.0267428090
16637659213,305,3,0,33501.1979856380,25208.4988991110,101061.5801978204,-23374.8513232873,-63739.7740805659,-6524.5137196107,102070.0267428090,-75340.1642068351,-43454.9337008584,-10906.1865194298,-35789.8444164588,-75604.9941281864,102070.0267428090,85979.8173273584,-3318.7149730638,102070.0267428090
16637659213,305,3,0,-35881.2968257800,-42642.4722485969,93403.2561528544,-23405.0758821955,-63174.3412092038,-6546.5859216475,102070.0267428090,-74264.3572922347,-43505.8190089719,-11018.5673672865,-35874.7141017988,-70045.2084188795,101248.7923811382,47671.4786870934,-3431.9110566076,102070.0267428090
16637659213,305,3,0,-73941.2684384951,-75907.4222327206,83294.4066385351,-23406.0614656382,-61643.4867688190,-6538.9202726490,97365.9221448787,-71569.7599923100,-43541.1174974553,-11066.6784405244,-35911.4605462041,-55397.8079896029,94879.3681252328,-19901.7769483277,-3435.6343718354,99722.8536902699
16637674050,306,3,0,-62614.0187705073,-70892.7250056879,91165.8113902645,-23344.2130626871,-62440.5439169027,-6477.8627699915,102070.0267428090,-72435.8688198639,-43456.5033337486,-10912.7570757142,-35789.6497333096,-58076.5264451736,102070.0267428090,42982.5593747981,-3281.4939884824,102070.0267428090
16637674050,306,3,0,37690.5238340801,32306.0989713854,101983.2102259773,-23334.0773712336,-63126.2909744500,-6474.9425227540,102070.0267428090,-74419.7509483605,-43431.1945243568,-10849.2538659953,-35752.1245563077,-70068.9354276843,102070.0267428090,93782.5841013096,-3259.3852833551,102070.0267428090
16637674050,306,3,0,-25913.1180544308,-34557.3540698693,94778.5100862674,-23393.4313963359,-63417.0137546406,-6538.4457324729,102070.0267428090,-74518.7229943183,-43494.7220694694,-10996.5560037338,-35854.3210419236,-71333.6580031577,102070.0267428090,64903.2857538661,-3392.4998865981,102070.0267428090
16637674050,306,3,0,-66444.4827365504,-69277.6701032883,83819.7591165624,-23421.7577945398,-61961.3435129247,-6558.3034136880,97414.4590875054,-72184.7397251352,-43558.6389808803,-11105.4447226023,-35943.8752905404,-59377.8616203872,93944.5848168102,-25432.6278745896,-3484.3294945208,97909.2341434167
16637674050,306,3,0,-67163.5936187863,-73830.5789004968,89086.5588540697,-23346.6466020517,-62532.7507234269,-6479.0673719770,102070.0267428090,-72939.5993006369,-43470.6787005473,-10939.4043317565,-35813.4740836889,-61317.4046616610,100086.7043283663,25461.4409806663,-3317.4130295037,102070.0267428090
16637674050,306,3,0,17452.1032177521,14235.0128485535,100655.4589809611,-23314.7794040724,-62255.8869499177,-6453.8315687662,102070.0267428090,-72840.3230622585,-43413.2106684525,-10807.0684611102,-35720.1843521474,-61072.1403968010,102070.0267428090,92898.8807841498,-3196.6364708392,102070.0267428090
16637674050,306,3,0,-6204.2964423213,-16205.6200198162,96745.6007931483,-23398.8338537253,-63730.9281649757,-6542.6070847864,102070.0267428090,-75098.5745864156,-43490.5607171560,-10977.6839059614,-35841.8491526800,-74518.4674726850,102070.0267428090,70809.1815993016,-3376.4506944886,102070.0267428090
16637674050,306,3,0,-53850.1986306929,-58107.2742150451,87056.5976577046,-23429.1314188145,-62480.2592793327,-6564.1682435566,99889.8431614679,-73206.8140905655,-43553.4798774274,-11096.9881733104,-35938.7405224811,-65314.5295710879,95360.9533977880,-8509.2232514912,-3497.2029177595,98532.8529409861
16637686240,307,3,0,-70906.6570185502,-74926.5720241265,86749.4484868031,-23358.7777957842,-62025.4551074848,-6488.3148215624,100587.2468725717,-72128.0017548498,-43482.1285032577,-10970.0182569630,-35829.6327850698,-57593.3472043345,98541.8083658478,11977.2723676630,-3343.3180560398,102070.0267428090
16637686240,307,3,0,-17906.9682280841,-21830.1987147053,97350.1893128866,-23311.1655981160,-61784.8754059016,-6450.2786012939,102070.0267428090,-71717.7070179802,-43402.8194553657,-10824.9549754399,-35709.7809713638,-54657.2819609586,102070.0267428090,80020.7486468066,-3198.9970040229,102070.0267428090
16637686240,307,3,0,18674.7864007022,8971.7174077312,99371.0977428154,-23381.8599166573,-63857.4722119343,-6524.5867257916,102070.0267428090,-75439.6472960595,-43464.0473057788,-10947.2038254200,-35809.5439176151,-76440.1483350227,102070.0267428090,79062.3356711540,-3354.5488402073,102070.0267428090
16637686240,307,3,0,-41840.8522142047,-47453.5309016009,91285.7848809387,-23403.6400939704,-62923.8083316194,-6540.5994148106,102070.0267428090,-73967.3073096962,-43517.2566439855,-11054.3282282492,-35896.9688192880,-69031.8217889808,98740.7015381156,24989.2856731489,-3467.1000358196,101751.4642722876
16637686240,307,3,0,-74428.1466591683,-76768.9438385722,84435.2863957446,-23371.3713619959,-61674.3683833556,-6501.6141141899,98550.0702319906,-71575.1624496994,-43503.2151218518,-11014.2478349144,-35865.1867951864,-55037.0114434090,96464.5391642352,-6688.0475649110,-3388.0708449546,101745.6237778126
16637686240,307,3,0,-50037.9983775811,-56841.1158513466,93443.0688568590,-23325.9128466654,-61992.0912827963,-6461.5702239456,102070.0267428090,-71744.4759509907,-43429.6978976476,-10868.4909946724,-35749.4841660971,-54491.4362532619,102070.0267428090,59463.0111627542,-3239.5762729274,102070.0267428090
16637686240,307,3,0,37144.7539607838,29653.3828839254,101559.2998363629,-23361.3086767234,-63616.6369887178,-6503.5001071974,102070.0267428090,-75161.5789205648,-43445.5767420015,-10890.8917245234,-35775.6082111759,-74592.5809140335,102070.0267428090,88946.5086636376,-3303.3471719764,102070.0267428090
16637686240,307,3,0,-32859.0112827167,-39903.8278861732,94007.0659399960,-23396.9235253241,-63228.0250875866,-6538.0198630841,102070.0267428090,-74319.0145863633,-43496.2795346627,-11005.5966024733,-35861.4026414745,-70245.1723484678,102070.0267428090,55076.9823274724,-3415.6793490458,102070.0267428090
16637711451,308,3,0,-72517.5749040299,-74529.1993812828,83317.2819085622,-23411.1475629101,-61683.1047896745,-6543.0572895688,97283.2548126636,-71658.2069805160,-43545.4857006147,-11075.4148468433,-35918.6516550264,-56124.4993469595,94582.6953412958,-22209.0034521971,-3450.7223158959,99230.6703537819
16637711451,308,3,0,-63617.6347398572,-71675.3999361268,90729.4656144970,-23352.5601027077,-62566.6012559883,-6486.5626732199,102070.0267428090,-72668.5151831185,-43464.7895352850,-10924.5840770261,-35799.3230522839,-59418.4165538981,102000.9263925515,39298.8256647429,-3298.9911365138,102070.0267428090
16637711451,308,3,0,35935.5890890040,31561.7279505451,102070.0267428090,-23334.6005821970,-62915.8506578972,-6469.7347485138,102070.0267428090,-74060.5362027536,-43434.3094547435,-10831.6715440861,-35744.8969443948,-67956.8909485516,102070.0267428090,95644.8744354545,-3238.8097080275,102070.0267428090
16637711451,308,3,0,-20469.4365082084,-29383.4181945148,95383.4758046072,-23401.9731195056,-63508.3809900840,-6544.4079039162,102070.0267428090,-74669.4929256513,-43492.8604118555,-10991.6037511269,-35851.5833101384,-72135.9350931784,102070.0267428090,68764.5339928712,-3385.1871008075,102070.0267428090
16637711451,308,3,0,-62839.0846586413,-65985.6510570541,84665.8642505394,-23431.9421567806,-62104.3991244721,-6567.1736646719,98028.4775722815,-72454.0595266142,-43562.8125008906,-11110.5186521775,-35947.1362332890,-60947.1416473389,94255.0922720349,-21751.6440640164,-3493.2727516857,98032.1887198125
16637711451,308,3,0,-66935.7656634735,-72770.4561471011,88760.9147839973,-23357.2568336813,-62406.3405211334,-6488.4730016211,102070.0267428090,-72734.7804600163,-43476.2271702985,-10951.1339914938,-35820.5435155431,-60652.5130364682,99922.1727319265,24465.9773681878,-3332.3792965959,102070.0267428090
16637711451,308,3,0,10075.8263851418,7043.9526969821,100133.1849302299,-23312.1025107714,-62076.4620925666,-6452.5904636903,102070.0267428090,-72475.0366359369,-43407.0659815569,-10808.9544541177,-35712.9932433251,-59059.4816653181,102070.0267428090,91386.4360690581,-3192.9618263987,102070.0267428090
16637711451,308,3,0,556.0394094148,-9478.0152725338,97521.4739810632,-23390.8640123063,-63777.5912822916,-6533.3596352009,102070.0267428090,-75219.0956234468,-43479.1595852329,-10969.7505676329,-35829.4137665270,-75262.4126241365,102070.0267428090,73533.2733963250,-3372.7030438672,102070.0267428090
16637737460,309,3,0,-49870.3396830577,-54469.2667096505,88370.1735359222,-23414.1894871159,-62588.6491226315,-6548.9951256184,100971.6974213893,-73431.5149477948,-43537.6375361639,-11083.1413343259,-35923.3970567874,-66537.8211388792,96282.3400720084,419.0433108853,-3490.7418707465,99375.2347597352
16637737460,309,3,0,-71829.0414439101,-75300.2176581654,86275.4558570654,-23357.1108213195,-61910.2148508747,-6484.9200341488,100193.9139050732,-71950.7427475332,-43482.7733911893,-10978.0976076534,-35835.7288011781,-56742.6548486554,98175.5606914773,8424.6334231781,-3354.2324800900,102070.0267428090
16637737460,309,3,0,-27243.8625528655,-31797.7812689102,96386.6172337810,-23310.9587472700,-61771.6369517582,-6450.2907689907,102070.0267428090,-71608.1369080896,-43405.7762056937,-10829.7003772008,-35717.0815894576,-53936.3945949866,102070.0267428090,75520.5746476288,-3207.5630625862,102070.0267428090
16637737460,309,3,0,24945.3846230117,15656.7108807397,100134.2191844599,-23377.1266825932,-63833.7087000390,-6522.1410187302,102070.0267428090,-75439.5256190912,-43460.9202076953,-10927.6868397160,-35803.7520939274,-76354.5607555701,102070.0267428090,82250.0045494347,-3345.2770552283,102070.0267428090
16637737460,309,3,0,-38771.1126535319,-44760.6979177156,92330.1382992518,-23405.3800746161,-63022.8290483645,-6544.0063699210,102070.0267428090,-74101.3101548072,-43515.2611417065,-11038.4858869857,-35892.7344607936,-69568.3320449948,99803.4160109346,34683.6182598010,-3457.6092322977,102070.0267428090
16637737460,309,3,0,-74639.0128451099,-76759.3435257789,84053.8656034358,-23380.1807744958,-61642.1361544717,-6511.7376379466,98160.8986168056,-71536.5543476802,-43515.3949863716,-11030.2361885397,-35881.3333288705,-54989.9467920979,95969.5572574779,-11192.3220779181,-3407.1497935729,101131.5079514619
16637737460,309,3,0,-55361.6577623419,-62740.9643514611,92683.9749228630,-23327.7136657952,-62126.7755189295,-6461.9960933344,102070.0267428090,-71921.9904799406,-43433.4212128754,-10877.0327178421,-35758.7316156825,-55436.7567871331,102070.0267428090,54641.5856320570,-3252.9364040390,102070.0267428090
16637737460,309,3,0,39761.8795350368,33119.7406902387,102047.9545407722,-23349.0679737195,-63476.7571460412,-6487.7186044181,102070.0267428090,-74968.3072242292,-43435.5748952131,-10870.3161491958,-35764.7911287003,-73336.9111049964,102070.0267428090,91885.1656264368,-3290.5467549187,102070.0267428090
16637782751,310,3,0,-30199.7733097596,-37706.2566660721,94463.6222601865,-23384.4638037774,-63294.5945569050,-6524.0148440409,102070.0267428090,-74376.7989785755,-43485.6327999427,-10989.5474103638,-35850.9505899036,-70520.3204767249,102070.0267428090,60950.7311179016,-3403.2682982864,102070.0267428090
16637782751,310,3,0,-70804.4848683279,-73001.9587468544,83482.4827283273,-23405.4287454034,-61737.5917360477,-6538.4213970793,97327.3627136468,-71772.0844550819,-43544.9138188640,-11086.6212956172,-35925.9036023329,-56964.2042724075,94393.0617863102,-23466.1577202467,-3465.2870489929,98836.7290014423
16637782751,310,3,0,-63893.1113959287,-71565.7446523585,90381.8831870528,-23338.1048788820,-62632.5866758592,-6471.5355676436,102070.0267428090,-72850.4344183183,-43458.4014944529,-10927.9910321366,-35801.1482068073,-60537.3336183422,101436.9293094145,36011.3451694236,-3308.6644554880,102070.0267428090
16637782751,310,3,0,31531.1383607323,27749.8927283380,101904.9110969217,-23315.5338012755,-62677.7653341627,-6449.6823841496,102070.0267428090,-73667.3127445266,-43427.0088366497,-10820.4529276154,-35735.6008240221,-65661.9903215638,102070.0267428090,95998.3825312514,-3225.8997816984,102070.0267428090
16637782751,310,3,0,-15968.9583166100,-25288.1729779076,95897.1351259877,-23388.0289389466,-63574.5002546199,-6530.0865247556,102070.0267428090,-74813.3151020985,-43484.0753347493,-10987.6005788721,-35842.8712392132,-72953.2879595627,102070.0267428090,70089.8760339165,-3386.6958952136,102070.0267428090
16637782751,310,3,0,-59424.3665576445,-62934.3333893713,85571.9439621565,-23417.8519638596,-62224.3361120558,-6554.6652723379,98712.5819907578,-72712.0025315637,-43555.4267089191,-11102.7434939076,-35939.6409320460,-62527.7011292454,94647.4153206970,-17713.9033825945,-3498.9063953147,98219.5834185827
16637782751,310,3,0,-68020.3089843928,-73233.2666634586,88245.5519850616,-23347.8633717340,-62275.1727493821,-6481.3548989797,101799.2346500144,-72526.2383041679,-43476.1784995112,-10952.0830718460,-35817.7084421833,-59599.0338455378,99613.0280587460,21245.5043792725,-3338.0494433154,102070.0267428090
16637782751,310,3,0,630.7003971204,-2559.0248219234,99315.2723497918,-23304.6558803158,-61940.3664036020,-6446.4822798851,102070.0267428090,-72136.4948072322,-43400.7144438154,-10806.4965793595,-35704.7070417887,-57191.5455198474,102070.0267428090,88163.9919132574,-3194.2029314746,102070.0267428090
16637824108,311,3,0,7195.1606654008,-2848.8593602459,98274.7882590684,-23385.3398779487,-63824.4977535441,-6528.9914320415,102070.0267428090,-75305.3280908310,-43475.1442452813,-10956.9744859688,-35821.7602852254,-75790.9287033378,102070.0267428090,76020.7034901422,-3372.7517146545,102070.0267428090
16637824108,311,3,0,-46516.0828675741,-51528.2127105772,89538.4184432865,-23408.3368249441,-62731.8750819344,-6546.4399092856,101977.7956008911,-73646.4329767784,-43530.7019489748,-11069.4770107937,-35912.7989928546,-67659.9018044973,97173.2466656874,9098.1276100248,-3490.6201937783,100179.1179857365
16637824108,311,3,0,-73404.1863007304,-76456.2096948290,85617.2321297315,-23354.9328035882,-61819.9305404485,-6485.4797482027,99622.3120114219,-71788.1701502819,-43485.7423092141,-10987.2720510579,-35838.3813590855,-56035.5534831838,97610.2981678707,2902.1052015431,-3370.8048831628,102070.0267428090
16637824108,311,3,0,-36709.7222962732,-42049.2848607817,95348.0678068525,-23304.5220356507,-61801.8371752728,-6440.8486362561,102070.0267428090,-71556.1686749588,-43402.3449151896,-10834.6161267173,-35718.0185021130,-53657.9490208904,102070.0267428090,70080.6772551184,-3217.7474248270,102070.0267428090
16637824108,311,3,0,29583.9175027632,20741.8104015900,100732.7481911804,-23356.3807595101,-63788.1893462244,-6502.6848715103,102070.0267428090,-75395.7827490128,-43441.9507683483,-10909.9341700513,-35786.8389953435,-76127.6088744286,102070.0267428090,84186.9193681947,-3328.8628322141,102070.0267428090
16637824108,311,3,0,-38476.3136949057,-44905.5421806959,92935.3230361345,-23383.4295495475,-63101.8095684423,-6525.6696508088,102070.0267428090,-74202.3993800123,-43493.6634798458,-11018.1901686850,-35873.5094998133,-69972.3847533942,100553.7613709149,41194.2486373367,-3436.8754769114,102070.0267428090
16637824108,311,3,0,-75195.9769994832,-77133.7922278081,83467.3826165700,-23376.8589932631,-61616.8516804736,-6513.5019539859,97604.2508225497,-71513.6425745626,-43516.7456007189,-11041.1384448931,-35889.4005118641,-55055.8105350005,95279.5758414361,-17372.3804681681,-3417.4436650851,100266.0440118396
16637824108,311,3,0,-60918.5840628954,-68850.5474417126,91810.4681356408,-23321.7758297456,-62279.3341016955,-6462.6288135692,102070.0267428090,-72157.0947179535,-43433.3847097850,-10887.8863034081,-35767.4558543046,-56689.3360011772,102070.0267428090,47505.3531223698,-3264.0333435415,102070.0267428090
16637835220,312,3,0,38602.1641831454,32629.3946759710,102070.0267428090,-23328.6140753601,-63293.5724703718,-6472.4724802989,102070.0267428090,-74681.8674733203,-43421.7767270159,-10848.6333134573,-35747.5860053927,-71726.8084552038,102070.0267428090,92632.9801054780,-3268.4502174882,102070.0267428090
16637835220,312,3,0,-29329.5152975891,-37334.4848573440,94602.5408548140,-23377.5525519820,-63336.7434586996,-6521.8368263096,102070.0267428090,-74409.7734369657,-43477.2492568317,-10979.6307374531,-35840.4498675454,-70813.6714794292,102070.0267428090,62821.8917030305,-3388.7765713703,102070.0267428090
16637835220,312,3,0,-68886.1866257070,-71325.9315156751,83721.2129399934,-23399.2962262046,-61821.5366764291,-6536.8760995828,97428.2450880058,-71915.8336253482,-43541.9935716265,-11079.1503297680,-35919.6615738628,-58037.6384861274,94239.0552476223,-24301.0929085401,-3468.4871532574,98454.7119919892
16637835220,312,3,0,-64673.5961409394,-71748.3574462772,89932.5058079879,-23329.1859571108,-62620.1147866156,-6465.6829054717,102070.0267428090,-72946.7782417624,-43456.7101845945,-10922.0896991774,-35796.6704943765,-61228.5804748535,100882.5690421613,32386.5031119914,-3312.2417583540,102070.0267428090
16637835220,312,3,0,25442.3133612607,22148.5178312903,101501.2720902142,-23298.3408456647,-62435.3848134497,-6440.3375929896,102070.0267428090,-73209.0651144777,-43417.4815300374,-10796.7989249916,-35720.8657431695,-63212.7911311643,102070.0267428090,95612.3501818468,-3202.4282945269,102070.0267428090
16637835220,312,3,0,-9544.0493631920,-19110.6089655064,96575.4720561699,-23371.6633867197,-63638.1738120944,-6520.8147397765,102070.0267428090,-74935.3692689295,-43474.6453697116,-10972.1962746943,-35832.2001690994,-73760.6146437649,102070.0267428090,72730.4122568568,-3379.8454819022,102070.0267428090
16637835220,312,3,0,-55239.5184216332,-59145.6897973087,86633.1739759631,-23400.4399897060,-62358.4728018319,-6542.7530971483,99543.3679944347,-72982.1619041235,-43539.1219951763,-11091.0990080481,-35929.4930728957,-64178.5412280012,95197.6629064241,-11730.1586128858,-3503.7248032566,98577.0946866343
16637835220,312,3,0,-69637.9677739125,-74210.9654385756,87610.6050617500,-23323.6009842691,-62129.1968905972,-6459.1488522778,101291.5861708645,-72283.3345724915,-43455.3474025504,-10947.9460549262,-35807.3293967933,-58567.8823782776,99174.8692961518,17044.3271941248,-3342.7583419859,102070.0267428090
16637882767,313,3,0,-9330.2994331033,-12818.4982552139,98371.7648027472,-23276.3903205961,-61807.3369742368,-6419.4456575446,102070.0267428090,-71828.9684377292,-43374.0306846826,-10800.0598677401,-35689.8259485742,-55588.5244696057,102070.0267428090,84220.0398389467,-3196.5147938710,102070.0267428090
16637882767,313,3,0,13106.8605022208,3125.6501275742,98933.0484894927,-23351.2216560572,-63830.3869188064,-6497.7934573875,102070.0267428090,-75362.5892720798,-43443.1310349401,-10934.8901162352,-35801.0143621422,-76262.6581414664,102070.0267428090,77490.4639247790,-3361.3992535187,102070.0267428090
16637882767,313,3,0,-45074.2472971460,-50455.4355524857,90434.6544881739,-23381.7869104764,-62828.5230977990,-6524.2460302806,102070.0267428090,-73809.8208097169,-43507.2182941066,-11050.8239315642,-35896.9566515911,-68547.3527722786,97930.1382465585,16719.4740243459,-3482.1758121832,100872.4211830110
16637882767,313,3,0,-74774.8530124412,-77386.5639616079,84850.7402360671,-23344.9917952838,-61710.4577721325,-6478.9700304024,98966.1932956384,-71618.8688166874,-43481.5201184165,-10996.6898483989,-35845.5116294237,-55332.9298301430,96940.4786254645,-3394.5075565739,-3385.4426224408,102070.0267428090
16637882767,313,3,0,-45398.6137590520,-51557.4516860428,94303.2155129696,-23291.5999416247,-61858.5751455582,-6436.0910667983,102070.0267428090,-71590.2503937599,-43399.7166926759,-10847.3070345036,-35723.9685058594,-53885.3267714207,102070.0267428090,63900.1199892987,-3233.1882320953,102070.0267428090
16637882767,313,3,0,33213.4319557754,25027.0785394810,101210.8291670506,-23335.7565133952,-63689.5701634745,-6487.8281136895,102070.0267428090,-75275.2860473752,-43426.0597562975,-10891.8164694819,-35770.4004369357,-75489.3888406716,102070.0267428090,86306.7633409908,-3320.7956492205,102070.0267428090
16637882767,313,3,0,-36503.0052949482,-43225.2440879317,93578.3249747428,-23369.0473319028,-63154.1428324777,-6517.6876416930,102070.0267428090,-74234.7411181676,-43484.0509993557,-11006.9228814270,-35858.3485495720,-70072.1111965551,101461.3620446350,48671.8458813916,-3432.1179074536,102070.0267428090
16637882767,313,3,0,-74042.3211606096,-75926.6715290945,83458.9747380654,-23373.8900752383,-61615.8904324246,-6514.0129972525,97516.1810329452,-71533.7557774110,-43521.6126794481,-11055.8491903520,-35896.3847698405,-55386.3216838020,95021.8031842421,-19113.7725666803,-3438.0922465937,99856.2968213271
16637902679,314,3,0,-61882.5211729057,-69941.8073312782,91385.2558024663,-23308.0141646389,-62417.2306097899,-6454.0019165217,102070.0267428090,-72417.3617529962,-43432.4599648264,-10897.1580883872,-35768.0642391457,-58153.0977612803,102070.0267428090,44852.8438857557,-3279.0847845115,102070.0267428090
16637902679,314,3,0,38622.5815784143,33615.5986711673,102070.0267428090,-23299.5576153469,-63082.3169181319,-6445.9347335281,102070.0267428090,-74364.3635924224,-43415.8997294504,-10833.6305432746,-35735.3087992984,-69835.1574686251,102070.0267428090,95333.7585953887,-3257.1342594429,102070.0267428090
16637902679,314,3,0,-23629.5333854883,-32055.8337831312,95192.8444984822,-23361.5276952662,-63391.6441067647,-6512.8814014479,102070.0267428090,-74491.6742042809,-43473.5381093007,-10984.7655055124,-35839.7441411297,-71403.7196014642,102070.0267428090,68587.1168054959,-3395.1524445055,102070.0267428090
16637902679,314,3,0,-65111.5845557781,-67988.5269602913,84394.3907667227,-23385.2790394646,-61950.4534242682,-6528.0788547798,97865.8441365461,-72180.6392113059,-43535.1553260120,-11090.5027909038,-35925.7454222742,-59610.8851822434,94359.3572661107,-22480.1362405027,-3489.5859395484,98371.8256412313
16637902679,314,3,0,-65750.0601111683,-72211.5573289329,89435.9299329468,-23314.7550686788,-62487.2192019155,-6453.7463948884,102070.0267428090,-72885.0393480828,-43445.5889096984,-10930.4245715011,-35797.2667115208,-61274.0633255777,100423.1289778238,28436.3941830884,-3330.1526080774,102070.0267428090
16637902679,314,3,0,17844.0125647222,14780.3811878546,100911.7228437491,-23276.9743700436,-62202.5315993491,-6424.9332888117,102070.0267428090,-72771.0523642455,-43390.6517585428,-10792.4793926194,-35702.8210487811,-60772.4986948392,102070.0267428090,93878.3560430029,-3194.2516022619,102070.0267428090
16637902679,314,3,0,-4255.7006346113,-14159.2324327402,97140.7954182606,-23363.0851604595,-63708.6247766992,-6514.7552267587,102070.0267428090,-75075.6628132980,-43458.4623329370,-10962.3039371773,-35821.1884034747,-74673.3865886347,102070.0267428090,72964.2267190065,-3377.2172593885,102070.0267428090
16637902679,314,3,0,-52832.5046361189,-57163.1704508563,87505.7681859235,-23393.5044025169,-62484.3841285557,-6538.4457324729,100259.8749895504,-73219.1399674471,-43525.5306778251,-11080.6347887804,-35919.1870336867,-65573.3729856024,95697.4997242137,-6320.4857792836,-3499.8798110606,98878.3425245767
16637938996,315,3,0,-71259.5810648996,-75258.3851164881,86875.2381365587,-23327.7258334921,-61995.3643932417,-6465.1110237211,100706.3442890746,-72072.6995727895,-43460.3969967319,-10951.9248917873,-35813.4375805985,-57441.0563108986,98662.5240860282,12078.4711021394,-3344.3279748761,102070.0267428090
16637938996,315,3,0,-19320.2827171593,-23364.2775947482,97377.1164259558,-23282.5350074916,-61756.9992124802,-6432.2825776928,102070.0267428090,-71662.1128111962,-43383.4728174172,-10807.9932060687,-35698.3068332598,-54477.1757125854,102070.0267428090,79802.4845011967,-3198.6563085118,102070.0267428090
16637938996,315,3,0,18748.8876743539,9014.8518929686,99577.3645393579,-23357.9625600971,-63847.2391789062,-6513.3316062304,102070.0267428090,-75426.2628295542,-43450.6385038799,-10933.8923650957,-35801.5740761961,-76523.7525798931,102070.0267428090,79382.8814762576,-3350.0346246860,102070.0267428090
16637938996,315,3,0,-42753.5389851967,-48454.8958470385,91465.3070798644,-23383.5147234252,-62928.0913609011,-6533.9436846484,102070.0267428090,-73962.5010694511,-43509.7978458330,-11040.8707555630,-35889.9480582211,-69116.9469959541,98915.5026706740,25820.1568507035,-3463.2063728362,101928.9909689343
16637938996,315,3,0,-74976.5934257656,-77280.9605208816,84452.2968359031,-23357.7192061606,-61658.3800297303,-6497.2702464241,98579.1388597006,-71542.8815500282,-43502.5093954361,-11010.1838241755,-35862.7289204282,-54956.6194704998,96490.5658677394,-7101.4450644705,-3388.1925219228,101762.4030317314
16637938996,315,3,0,-51392.4090463364,-58340.5776339282,93456.8913604499,-23307.9289907611,-61993.0038600580,-6454.5981336660,102070.0267428090,-71746.4227824823,-43420.2070941257,-10860.8253456739,-35744.7144289425,-54560.5122681258,102070.0267428090,59243.2503904350,-3238.4203417292,102070.0267428090
16637938996,315,3,0,36803.0485309052,29311.7017894404,101698.8268158315,-23335.4158178842,-63584.8062938289,-6488.6433493766,102070.0267428090,-75128.8234807174,-43431.1945243568,-10875.8159481598,-35764.9736441527,-74510.5341343564,102070.0267428090,89322.4539923761,-3297.9203791934,102070.0267428090
16637938996,315,3,0,-33572.9022230156,-40762.4292447873,94130.3490442061,-23369.8382321963,-63217.3418497761,-6521.1067645002,102070.0267428090,-74300.6413641607,-43478.0644925188,-10991.6524219142,-35848.2858642994,-70262.7181672864,102070.0267428090,55836.2101061335,-3409.1452958519,102070.0267428090
16637952403,316,3,0,-72695.5639731559,-74748.4004395481,83421.6320765158,-23384.4394683838,-61668.2236964601,-6530.0743570588,97368.5260319988,-71653.2303925154,-43529.0714776006,-11068.8807936494,-35909.7570686489,-56203.4068608562,94642.2440495473,-22270.4503211530,-3450.1260987516,99271.0792749308
16637952403,316,3,0,-64243.8574245468,-72403.9042803100,90758.0718697277,-23324.1972014134,-62558.6800853566,-6467.7027431444,102070.0267428090,-72671.2650826005,-43441.2328742358,-10913.0612681348,-35784.2716113139,-59563.8448663259,101993.5771036705,38847.3189387340,-3292.7734434373,102070.0267428090
16637952403,316,3,0,34941.3300785109,30530.8685080087,102070.0267428090,-23306.5783764138,-62870.1974594176,-6451.6778864285,102070.0267428090,-73983.3078310183,-43412.1520788289,-10820.4042568281,-35726.2925359526,-67641.5285822946,102070.0267428090,95667.6766993007,-3232.1904809558,102070.0267428090
16637952403,316,3,0,-20684.7925742776,-29766.9561660707,95496.5380434860,-23377.3578688328,-63503.9276130468,-6530.5367295380,102070.0267428090,-74655.4635712145,-43473.6354508752,-10980.1661161133,-35834.1226651975,-72240.3460996160,102070.0267428090,68706.6644267813,-3381.4881209733,102070.0267428090
16637952403,316,3,0,-62934.5767433077,-66170.3080240391,84789.3542055954,-23410.8920412769,-62108.7794953283,-6558.6684445927,98129.8466545135,-72468.3200672907,-43547.0309981112,-11099.4217126750,-35935.6864305786,-61176.0403599721,94318.3886309078,-21764.1402886535,-3494.5260244585,98062.1942601779
16637952403,316,3,0,-67792.8825630752,-73636.9543409533,88718.5103605693,-23338.2508912439,-62376.7973532473,-6481.7199298844,102070.0267428090,-72687.4359516782,-43459.6791026193,-10938.0537174091,-35805.8571054778,-60507.1090594340,99907.8391850691,23586.3015586764,-3325.0786785022,102070.0267428090
16637952403,316,3,0,8246.9242110790,5130.7162162395,100074.0742590641,-23296.6130327158,-62049.3767994387,-6449.2443470639,102070.0267428090,-72412.0201340909,-43392.8662793646,-10796.4825648742,-35700.7282049276,-58719.6865638406,102070.0267428090,90916.8481455703,-3185.4908605494,102070.0267428090
16637952403,316,3,0,229.0082219046,-9885.4627683469,97619.8741452703,-23377.4430427106,-63782.9085658033,-6533.1284489613,102070.0267428090,-75222.0523737748,-43468.9873906889,-10956.7676351228,-35819.5822674941,-75420.1059749618,102070.0267428090,73151.6822562607,-3366.1324875828,102070.0267428090
16638027570,317,3,0,-50860.1818196041,-55491.0003795698,88441.9872825712,-23405.2097268606,-62619.3360540190,-6552.4264161225,101049.8748734767,-73447.6493137820,-43530.7871228526,-11072.1782394884,-35914.1617748988,-66714.4230905674,96341.5602524457,532.7991084830,-3487.2254063647,99402.4052267409
