timestamp,sequence,battery,flags,EEG-ch1,EEG-ch2,EEG-ch3,EEG-ch4,EEG-ch5,EEG-ch6,EEG-ch7,EEG-ch8,EEG-ch9,EEG-ch10,EEG-ch11,EEG-ch12,EEG-ch13,EEG-ch14,EEG-ch15,EEG-ch16
16619146120,0,-2,0,-29729.3823182815,-42737.2586068476,67764.9576988666,-23930.0633293182,-62604.4062900172,-7053.1271403866,85155.0908366994,-73860.2072422607,-43856.6867145583,-11312.2347301082,-36317.8494523935,-67443.5114841981,80605.4551499363,34409.3583734119,-3647.9363460021,66226.0604108818
16619146120,0,-2,0,-62013.4942615079,-64945.0331216656,18488.6449747048,-23924.3688472050,-55846.4674745552,-7037.7228362087,77189.5932854382,-70375.0260089622,-43880.1460340329,-11343.8829095447,-36335.5899543614,-52922.9227912101,75015.3962109339,-28206.9114210077,-3632.6293833989,62278.3606859497
16619146120,0,-2,0,-60756.6806889694,-63258.6146773995,69534.4085062524,-23858.2739180628,-60965.9042358398,-6976.5071534925,84407.4710408073,-72610.5726108477,-43782.3907577574,-11177.5139908846,-36199.2874145508,-55878.2860017472,83114.8114334285,27373.4120209393,-3460.8093365621,90854.9997426193
16619146120,0,-2,0,35921.7544177163,31016.8828222074,83383.4498438854,-23852.2387404386,-63548.6438988712,-6981.9217785787,94214.1601399225,-75061.6942973452,-43745.5226363839,-11124.3776588588,-36161.2390265854,-68083.2038092706,90375.7750032477,78052.2708224879,-3457.2807044834,94364.2730156271
16619146120,0,-2,0,-22012.3491361447,-36377.2156451927,74237.8560485543,-23914.7441990181,-63755.7502664945,-7041.5556607079,87290.0592566464,-74869.6150352983,-43837.0115487956,-11275.7559750331,-36285.3251987858,-69201.9140228687,83426.8641861496,53855.8566097156,-3593.5832442940,82667.1010288283
16619146120,0,-2,0,-56500.6515265439,-61055.6044968186,16239.4827200745,-23944.6767332025,-55716.1636092783,-7062.1312360355,76843.5074847032,-70164.1719907174,-43908.2169106034,-11394.3910190567,-36382.0462208314,-54819.2461733688,73844.6204226305,-31766.6319650435,-3686.9581497133,51553.5093522721
16619146120,0,-2,0,-64637.1295535611,-68368.3781197099,58926.3670620751,-23871.8652354140,-60547.7491668226,-6990.4269986579,82084.7672265791,-73353.3739987978,-43811.2160315310,-11232.3781358593,-36246.6684259793,-60496.3284800489,80057.6776066643,8608.9740300457,-3523.2904597479,85840.6553787944
16619146120,0,-2,0,19803.7539827221,19888.4776557002,83699.7004520105,-23826.6744094136,-62486.4891401061,-6954.5809638176,93895.2204707996,-73620.6982979979,-43717.6586106594,-11085.6235444778,-36125.1253024149,-61557.2056306475,91177.3585345495,77396.8821685138,-3402.1610378755,96413.4591729724
16619164885,1,-2,0,-7659.5773177388,-22466.3867430928,75716.9247712607,-23911.4832562695,-64020.1178153665,-7040.9959466541,88602.9659115387,-75382.3861148107,-43826.3161432882,-11259.4025905030,-36267.1588274292,-70720.0775554672,84729.8906712217,60084.7804704065,-3571.3285268049,88505.1376290822
16619164885,1,-2,0,-47717.2900656318,-55539.3426390474,29723.4201468382,-23949.2761226016,-57579.1475021422,-7070.4539406624,78760.2482621308,-71088.2477259358,-43906.2335760213,-11397.9561542259,-36383.1778166359,-60064.3265720471,74612.4750983390,-18577.0676275172,-3709.7847489531,47309.5992158823
16619164885,1,-2,0,-64822.1150483603,-68010.7573423868,44238.0831714734,-23876.0752585148,-58794.7855886318,-6993.9191276461,80363.2814800693,-72365.8802277383,-43823.0673682365,-11260.5950247917,-36263.7640400156,-57814.0570570059,78345.8408437350,-4459.8989226939,-3547.0053008558,80112.0550437660
16619164885,1,-2,0,-13844.7583083513,-11975.7392378633,81185.5014251828,-23822.6469017652,-61508.0359677860,-6951.2835179785,91234.1086725317,-72368.8004749758,-43724.7037071198,-11091.0138341703,-36122.3754029330,-55223.3110494651,89675.4997156937,64934.9339333026,-3378.3001844057,96467.8609454678
16619164885,1,-2,0,9538.9632659200,-3893.2857847399,77978.4615735600,-23905.7887741564,-64198.1068844925,-7038.3798918372,90259.1111261093,-75946.7847319429,-43814.8420051842,-11237.3303884662,-36253.7013547430,-72308.4243633404,85880.4315797086,58866.0152858333,-3556.4839366809,89194.2308032559
16619164885,1,-2,0,-48729.5937705133,-60498.7498517166,51645.5579787377,-23942.5108831680,-60374.3351517021,-7067.4485195472,81069.6162806411,-72399.9011080553,-43892.1555507972,-11375.8109460081,-36369.5378284974,-64989.3722088884,76341.1154505808,88.9580314725,-3698.9433310839,47255.9153374995
16619164885,1,-2,0,-66124.6669932562,-68115.8375721497,22236.7579686503,-23892.8910155241,-56001.5326028668,-7007.7172958433,77342.0545266296,-70503.8332475299,-43843.2414095689,-11305.0801243763,-36293.2950402048,-52865.0288897266,75595.3573123026,-23347.4375023452,-3581.5858952266,66865.3025311719
16619164885,1,-2,0,-47146.5642461517,-46560.4462901906,75391.6092290025,-23828.4387254529,-60893.2387504132,-6950.8211454993,87117.7890050272,-72035.9287929906,-43735.6668019573,-11118.4519905061,-36138.3515888615,-52956.9558392239,86097.4181171521,44268.1130472324,-3394.8482520849,94554.7948124808
16619207515,2,-2,0,29650.2679535387,20441.2196192760,81546.4074806481,-23873.7268930279,-64061.1472890535,-7004.7240424249,92750.6660691495,-75862.8762946519,-43771.7561907342,-11168.9966031086,-36197.5109308146,-71206.9801115340,88341.4577714200,68912.9068879302,-3501.2304254079,91632.9901097814
16619207515,2,-2,0,-41949.9964547065,-56263.8924817631,69110.8874829363,-23922.8357174053,-62994.4661470703,-7043.1739643854,84366.5145733013,-74225.6153455504,-43852.9755670273,-11307.5988376187,-36312.6295104565,-68370.1789388397,79935.9641353444,25368.1147460344,-3637.0462573456,66466.8712987046
16619207515,2,-2,0,-65264.4473309647,-68027.5000932152,9601.3227121375,-23925.7072938555,-54516.1488455093,-7032.6610743304,75312.2636780201,-69424.5342039413,-43880.1825371234,-11353.3372099761,-36340.3110207287,-51834.7534966376,73154.0062863539,-37183.2282181380,-3636.3526986267,51680.0290638371
16619207515,2,-2,0,-64741.3337091528,-66005.9832784452,65169.1986002347,-23856.5704405076,-60370.1981347823,-6976.4098119179,83073.7332889542,-72756.9986744150,-43782.1717392146,-11184.2183918341,-36199.9444701792,-56719.1955291807,81680.6780150892,18614.9456677270,-3466.9783588513,89531.0326513149
16619207515,2,-2,0,31478.2088795525,27563.5931222819,83630.0525553959,-23848.5154252108,-63324.9529604782,-6982.0677909406,93829.3202248065,-74902.4313136297,-43738.8425708281,-11111.4799002265,-36151.6873845794,-66509.5677468563,90117.4061289093,75465.2968009622,-3442.7281390832,94289.2469970169
16619207515,2,-2,0,-33019.0529990289,-47981.0248942691,72699.8591701344,-23925.8046354301,-63695.1186332257,-7053.6868544404,85974.5608823309,-75173.1869033339,-43847.4757680633,-11289.1282738415,-36295.9597658091,-70094.8282865235,82205.0449096739,37847.5357938833,-3603.1957247842,82903.2760241616
16619207515,2,-2,0,-63004.7478508857,-68501.3710459846,11145.2087558197,-23956.5645729985,-54835.5508871116,-7074.5301190981,74931.5607798239,-69361.3351866429,-43895.8180275409,-11417.5461461108,-36394.0070668083,-55017.1659298908,71813.4546242799,-40114.6088982371,-3704.7838255589,37441.6092601732
16619207515,2,-2,0,-67021.4140814102,-68128.8448400535,50577.4532162262,-23872.4492848615,-59054.1035433224,-6990.5365079293,80513.8445605564,-72988.3065910191,-43804.0249227086,-11237.5980777963,-36237.6643303303,-59678.1360425838,78475.6214980485,-3589.3853888901,-3521.1246097134,82904.4441230566
16619282815,3,-2,0,10478.4676407098,11545.9883537738,83174.3114708926,-23832.7582578251,-62041.0054240245,-6963.2443639555,92778.8464549914,-73305.3602671345,-43712.5238426001,-11080.3549317534,-36110.1225322323,-59422.1277014291,90372.7330790420,72926.3730141903,-3385.3574485630,96270.6347476648
16619282815,3,-2,0,-13364.8643456544,-28102.9141162620,74779.2577186911,-23930.2580124673,-63890.2398194784,-7060.2939138153,87622.4198953651,-75725.2839789780,-43835.3810774213,-11274.4905345635,-36276.5279539828,-71512.8881773596,83528.5496284990,45870.6838926916,-3585.5038936036,86792.0110902898
16619282815,3,-2,0,-58776.5462110942,-68189.6468210777,31097.7006645054,-23968.1238849803,-57405.5996423566,-7090.1656095156,77235.6115148225,-70690.0111766177,-43876.9824328590,-11422.5227341114,-36396.4162707793,-60971.1728485642,72957.6439950253,-24772.6276635196,-3733.9011240562,35203.0694048692
16619282815,3,-2,0,-67237.8287371031,-68167.2095881362,31969.9055081676,-23895.2272133141,-56801.3639858261,-7011.0269093792,78170.8085249370,-71448.8860920709,-43824.7343427012,-11281.3044447843,-36268.2417524464,-55482.8966934857,76366.6797816058,-17854.6227963518,-3560.8764752340,73794.7328656564
16619282815,3,-2,0,-24898.7823441799,-22297.8763097919,79165.5907463935,-23842.2490613470,-60807.5781647797,-6966.7608283373,89304.8960058606,-72230.2104081625,-43729.6681274236,-11101.8065812523,-36121.2316394316,-53887.6873046044,87979.0672569423,55812.9698052017,-3385.8684918296,95714.1694688611
16619282815,3,-2,0,9458.3644421648,-3049.1396499515,77794.1696374797,-23927.0822435965,-63929.1156108277,-7056.1325615018,89749.0899460789,-76067.4882844265,-43821.6437477082,-11240.2384680069,-36254.0298825572,-71885.2562032321,85271.4991922045,53719.7487530541,-3561.9228971607,88269.2668261695
16619282815,3,-2,0,-55908.4253867776,-68708.0272088255,55919.6075001579,-23964.8994453222,-60583.3883508170,-7087.9997594811,80635.3511810303,-72702.1588648340,-43832.4608301838,-11377.3805788983,-36371.2899768399,-65806.7007398791,75931.5507755205,-1867.7414623216,-3703.7739067226,46655.4516669841
16619282815,3,-2,0,-67536.8742219205,-68882.5728197506,12507.4797567227,-23933.2756012794,-54412.8329317857,-7046.2037208943,75338.8135924877,-69726.7311222358,-43841.1972365027,-11343.1163446449,-36323.3979221448,-51876.2940135911,73576.6390678020,-34962.6357156479,-3614.0736457439,58308.2115603792
16619295254,4,-2,0,-55257.3197620852,-54085.9964274247,70676.3833561760,-23871.5853783871,-59762.2148276303,-6989.5509244867,84559.3969033386,-72242.5849558315,-43777.8400391456,-11158.2281914203,-36169.0020171585,-53308.3345880768,83534.0007566756,27925.6672766422,-3428.8691324019,92160.5084378432
16619295254,4,-2,0,25839.2114639282,16881.7180937830,80894.5474587526,-23901.2867263319,-63652.1058249566,-7026.3095365888,91651.6310213141,-75741.6251958112,-43780.4439262657,-11171.0529438716,-36195.3572484770,-69579.4898229814,87341.1149125155,64098.7333045395,-3498.7482152560,90664.1737533451
16619295254,4,-2,0,-50492.5105247052,-64336.5509389439,69220.2020711936,-23953.7051642451,-62598.5049570581,-7074.5179514013,83438.1314734077,-74538.5563401397,-43835.4540836023,-11317.1261442311,-36318.0928063300,-68662.1793271966,79230.1038749487,17269.9649640094,-3638.8835795659,68724.4535995365
16619295254,4,-2,0,-67409.1134052796,-70662.2201570741,2456.2564545568,-23964.3518989652,-53207.6590645638,-7074.7126345505,73397.7374214143,-68635.9822759369,-43800.7518122632,-11394.4153544504,-36368.5400773579,-51962.2222885547,71128.2186099991,-45633.6693262776,-3671.9310441370,40199.8436144818
16619295254,4,-2,0,-67163.2650909721,-67476.5102779819,58076.9036437751,-23889.2285387804,-58914.6008992473,-7001.7551244001,80839.8536615335,-72951.4628050392,-43810.5711435993,-11213.4817026932,-36214.7403895159,-57572.6256166451,79238.9741259326,282.9232865270,-3490.2186597832,86264.2250728978
16619295254,4,-2,0,24513.5043919782,20810.4483793682,82530.3604519321,-23864.2604248997,-62729.9404181395,-6988.0664654743,92298.4536167249,-74555.9804819901,-43735.9466589842,-11104.6173192184,-36134.9933045384,-64083.4385096331,88884.7332668676,70980.0769011798,-3425.4256742010,93465.0680527149
16619295254,4,-2,0,-37285.0840082428,-50710.0811115963,71285.1818990151,-23947.1954464449,-62910.8740698967,-7067.3146748821,84780.8124824257,-75324.5408841144,-43852.1968344306,-11289.8705033477,-36293.1368601461,-70175.7069673056,81082.3801946083,28128.5757888616,-3596.5886654093,83163.3970468425
16619295254,4,-2,0,-66936.9337623685,-73020.0521120302,10689.4555036196,-23981.2893329427,-54071.6628805673,-7089.6180631586,73532.7501853616,-68859.6123758457,-43708.7761919786,-11425.7350060726,-36404.3009383205,-56095.1143591321,70232.5422791655,-43615.2796095911,-3721.2102162699,26962.3750545635
16619310009,5,-2,0,-67519.2675646177,-67744.2604465707,40609.2744448769,-23894.3754745365,-57148.2163514609,-7001.7794597937,78369.2514924224,-72444.6904000605,-43813.4548877464,-11243.4385722713,-36246.8874445221,-58408.4977175939,76328.8869152737,-19251.8637579239,-3533.3044742332,78156.3654688082
16619310009,5,-2,0,-148.0443672447,1011.3424568325,80792.5578239827,-23848.2720712743,-61111.2838774804,-6967.4665547530,90410.7449639168,-73027.4500716985,-43728.0619914430,-11078.7487957728,-36110.0130229609,-57159.0334339364,88322.7925244936,63462.9589778440,-3380.9892454036,94872.7488981611
16619310009,5,-2,0,-16159.7478027937,-28826.0890092367,73459.9873583604,-23941.7564859650,-63069.3826564091,-7065.2583341190,86311.0950410598,-75852.1808891445,-43837.0602195829,-11267.1899164697,-36273.9970730436,-71191.4662980848,82147.8202315156,34423.1687093059,-3585.5160613004,84963.8754811268
16619310009,5,-2,0,-66502.3888057308,-74109.2799962263,35310.6683478745,-23976.1545648835,-56828.3762727730,-7091.4188822884,76085.2409540911,-70561.4229565928,-43606.4336940008,-11409.2234414839,-36388.2517462111,-61911.1517635301,71757.9212559800,-28263.1991865106,-3729.4112439285,28229.6041755825
16619310009,5,-2,0,-67723.4901880940,-68035.8958040230,19375.3050421926,-23906.4823328753,-54632.3016793811,-7015.4316156291,75594.2013811045,-70498.2482746881,-43768.7507696189,-11287.8019948878,-36273.7050483199,-53772.9337558672,73875.3316894116,-33331.3734410802,-3572.5331287904,65077.4541661897
16619310009,5,-2,0,-34891.4181861432,-32520.6763048580,74607.3646656734,-23848.7222760568,-59427.0556186424,-6966.3471266453,86268.1430712748,-72199.1341104767,-43754.5875705170,-11105.6150703579,-36123.4826633439,-52579.0636789938,85105.3857951777,39366.5875683499,-3394.8604197818,93409.1574858135
16619310009,5,-2,0,7512.3238507876,-4496.5115224341,76726.1500488459,-23914.6711928371,-63246.2644651242,-7042.5169087570,88375.0284469545,-76029.1113686469,-43797.4665341210,-11213.7372243265,-36229.7188243050,-70606.4190994441,83920.7631678897,45899.3996571938,-3548.5505983523,86639.3795013428
16619310009,5,-2,0,-63945.4933307514,-72094.9421225819,58524.4315329229,-23958.5479075807,-59852.1584425455,-7075.7347210836,79598.2497100236,-72991.4215214058,-43637.4734885962,-11353.3615453698,-36346.1150121132,-66357.3741949950,75018.5111413206,-8493.2105624722,-3689.0023227796,47064.9068327729
16619321304,6,-2,0,-68525.2440671513,-69099.1699908958,898.0977025013,-23932.2656824431,-52366.0559784114,-7039.6818353972,72704.0326901447,-68553.9598316534,-43652.6222711407,-11340.4151159502,-36319.7111100074,-51090.3946434941,70978.9088022848,-46546.9036436266,-3622.5301950358,46063.7609058781
16619321304,6,-2,0,-60286.7155668800,-59584.8949818296,63607.0488436213,-23868.6164603623,-58096.2381140267,-6983.7591007990,81664.7383322512,-72398.3558105588,-43806.7261514033,-11161.6716496212,-36170.6689916232,-53303.6986955873,80561.1403981071,7522.3378652728,-3436.2914274639,88861.9675061118
16619321304,6,-2,0,22275.1957229139,13312.8231063427,79808.7995358478,-23889.4718927168,-63018.5460190829,-7017.3176086366,90077.4839156333,-75519.6742380639,-43764.0297032516,-11149.1754249840,-36176.1809582840,-67360.4182825942,85931.8766018760,58790.1253607487,-3472.4659901185,89361.2324421508
16619321304,6,-2,0,-56023.3736186640,-64438.3337228679,67694.4945665649,-23954.0945305435,-61299.0922779425,-7073.5567033523,82007.0521469710,-74794.8567060181,-43812.7126582402,-11306.8322727189,-36306.1076249594,-68874.9801769331,77983.8640309493,6131.8621431343,-3617.7117870939,71155.1335553715
16619321304,6,-2,0,-70184.0296719325,-70849.7608682061,-3903.7621717045,-23972.2852372938,-51466.4251461103,-7084.3737858279,70949.8523422716,-67483.8230637725,-43440.7218309692,-11401.4604509109,-36375.6703476961,-52040.5579207008,68662.8607182187,-52682.3917604142,-3674.9486329491,25991.2955065182
16619321304,6,-2,0,-66783.5234408249,-67458.7941114077,48008.2805351525,-23894.7526731380,-56947.2546707331,-7010.0778290270,78179.3259127131,-72805.9493187337,-43839.2382373142,-11222.0964320439,-36223.0874295365,-57468.3362871756,76365.8767136154,-20211.6151802271,-3492.0438143066,81545.5192387800
16619321304,6,-2,0,16471.5937046689,13132.8020318473,80445.8879738002,-23866.9373182007,-61815.3798218367,-6993.0065503844,90029.7135379064,-74217.3048086203,-43745.3644563252,-11094.3842861903,-36128.3984128603,-61260.1556481091,86937.2933903557,63192.9212822524,-3400.9807712837,92020.2148934747
16619321304,6,-2,0,-39251.1282931970,-49227.6906076572,69064.5285580409,-23957.1607901428,-61534.8900746743,-7083.1205130551,83055.2262220865,-75424.3646688498,-43855.1657524554,-11286.6947344769,-36294.1832820729,-69915.8171308644,79291.6237500855,14028.6730458300,-3586.2826262003,81796.3319733913
16619369867,7,-2,0,-71845.9180394035,-72778.0122868282,12422.5614005953,-23996.9369910570,-52877.0019034003,-7111.7146005890,71698.4820570000,-68258.1022834036,-43244.4325458215,-11425.2604658965,-36406.2842729027,-56974.0966099246,68369.8260756318,-47215.7132671965,-3718.6428322402,16261.5062513240
16619369867,7,-2,0,-66628.3001324546,-66989.2426910104,28146.8273340960,-23905.1803893152,-54893.5056270792,-7015.8574850179,75735.8942106076,-71427.5074487530,-43773.1554758688,-11248.4394956656,-36248.4327420186,-56343.3353743201,73806.2191714573,-34345.8308282993,-3525.3833036015,70885.4973937751
16619369867,7,-2,0,-10165.6239876951,-8848.9088436973,76954.4038735475,-23848.6127667854,-59797.7201669597,-6971.7495840347,87531.0039891343,-72719.2423111734,-43753.8453410108,-11072.8109597232,-36100.1206854438,-54684.7566203848,85750.6752607887,50874.4666956742,-3362.3970046581,92947.5150683511
16619369867,7,-2,0,-14850.4549538579,-26801.2260778405,71960.1483771773,-23938.5928847910,-62090.0169068273,-7067.4485195472,84843.5612949416,-75865.4801817720,-43823.2255482952,-11249.8387808002,-36260.5517680543,-70300.1460027138,80657.3868799766,25492.1400797506,-3564.9648213665,82990.4210688075
16619369867,7,-2,0,-70952.7117510250,-73463.1874626249,39886.3550735355,-23977.1766514166,-56012.2158406773,-7097.3080475507,74896.1771174628,-70637.3493847680,-43239.8088210288,-11390.5338591639,-36380.3670786698,-62620.2607989775,70643.2993885144,-31143.6337200120,-3709.3710472612,25527.1465435102
16619369867,7,-2,0,-67335.7908642246,-67167.7793064934,6479.4932413658,-23922.2029971705,-52384.4657037045,-7034.5957381252,72797.2129124148,-69145.8209405150,-43609.2322642701,-11297.2197922287,-36288.5131353534,-52219.3500578172,71220.6809381567,-45090.7953648252,-3573.2266875093,54417.8946936641
16619369867,7,-2,0,-42813.7447490766,-40904.6087821634,68478.0699065687,-23859.5028554419,-57809.3238229418,-6982.7978527500,83251.4425010533,-72002.6744775735,-43811.7027394039,-11115.6655879336,-36131.8297033644,-51244.7905484804,82224.9025908889,22097.9367155973,-3388.4358758592,90610.8670735638
16619369867,7,-2,0,9160.4992239392,-2597.0488744951,75809.0464039072,-23915.3769192529,-62574.3520788645,-7045.9968700483,87074.4598366407,-75899.4402236048,-43787.3308426675,-11192.6749411260,-36212.7935580242,-68984.9153177284,82708.9579058992,41523.9932212384,-3520.2363678453,85223.7774852649
16619379051,8,-2,0,-65972.7167953313,-70539.9591393972,59930.8712732931,-23960.1297081676,-58911.2547826210,-7081.0033338079,78582.7459008777,-73410.4769999879,-43520.8339468514,-11337.1176701112,-36332.7183779112,-66725.6417070381,74155.2860579138,-13874.6786748389,-3665.6646802732,50646.3345479409
16619379051,8,-2,0,-68854.8061356007,-68229.8002205934,-8047.2158031241,-23944.6037270216,-50438.1330876035,-7054.0275499515,70101.3015012333,-67170.6995537309,-43308.7144881371,-11359.0803628766,-36334.9815695202,-50321.0676764700,68483.1316684471,-53522.5955614320,-3636.9732511647,33347.7268256102
16619379051,8,-2,0,-62612.8871747028,-62629.2770623233,55695.9774002491,-23873.0455020059,-56498.6316888713,-6989.2588997629,79048.5009998663,-72117.0021569219,-43854.9589016094,-11179.7528471000,-36182.3621482701,-53352.4059859695,77787.7329258603,-9266.1756708464,-3456.3316241313,85133.8338703497
16619379051,8,-2,0,21093.1526473524,13021.9421460935,78756.3302637538,-23876.4159540258,-62336.3519290078,-7004.3833469139,88653.7052072904,-75177.5186034028,-43750.2680381448,-11125.0468821841,-36157.0898419688,-65009.1690516194,84738.7244191151,55751.6202778204,-3455.4677176568,88410.8988171885
16619379051,8,-2,0,-53906.3890546212,-61287.6789783225,65818.0166979244,-23944.2021930264,-60087.1653389838,-7066.3290914395,80762.3576004682,-74941.0759187394,-43822.4589833954,-11295.2729607371,-36294.7429961268,-68741.4275366045,76911.4154006720,-428.3394312580,-3612.8325406679,73687.3894442844
16619379051,8,-2,0,-70662.7312003407,-70099.3425020448,-4764.8822435609,-23968.2333942517,-50261.2634465852,-7078.7888129861,69119.8794108884,-66637.3528988909,-42987.4021181337,-11410.0751802615,-36382.3382455551,-52398.1543626303,66834.6886059653,-54685.1459866832,-3696.8261518367,15925.8725021600
16619379051,8,-2,0,-65426.5575557367,-66209.9503802882,39035.7113886436,-23886.2231176651,-55362.5825073005,-6997.7276167517,76131.9405744976,-72086.2665547471,-43827.9101115720,-11221.2203578726,-36224.6570624266,-57319.2820010946,74158.2914790291,-31035.0856966546,-3509.2246022206,76724.2640558384
16619379051,8,-2,0,10770.0056565875,8693.5395229651,78278.3831325487,-23844.6947684084,-60857.5265602379,-6968.5981505576,88189.7874305220,-73640.3612960637,-43742.1156812735,-11072.7622889359,-36107.1901172979,-58718.8591604567,85457.2390842067,58063.4096679984,-3390.0055087494,91102.2960128487
16619475141,9,-2,0,-33617.2656456320,-44021.4129941473,67869.6120592407,-23936.5122086343,-60692.0093803554,-7059.3935042504,82081.0682467450,-75449.6613105447,-43827.0340374008,-11268.0173198537,-36274.9704887895,-69492.1865982768,78206.0826780267,10442.3660842361,-3584.0194345912,80558.1106415982
16619475141,9,-2,0,-71296.2423354271,-71875.7288966198,17727.1296690410,-23973.7575286093,-52407.2923029443,-7086.1867726545,70851.3548364899,-68161.2230812993,-42843.3974262342,-11409.2842799680,-36390.6731178788,-57919.8065100941,67416.7912219749,-45827.0748672782,-3716.7081684454,12388.3336694324
16619475141,9,-2,0,-65507.1807148856,-65738.7684885166,18294.9839120709,-23892.1366183210,-53150.2032001659,-7000.4045100528,73657.8097733078,-70177.4591156481,-43664.8386387510,-11248.9262035385,-36245.1596315733,-54511.1965929024,71882.0195958772,-40509.9373680144,-3532.1850461255,64169.6588093205
16619475141,9,-2,0,-18282.5728613115,-16374.3738070536,73214.5649134417,-23833.6464996932,-58597.5593908288,-6955.1406778714,85330.0623170133,-72130.3379526398,-43777.7670329647,-11070.0975633317,-36091.8709869978,-52661.1956325487,83852.6118979844,41638.5520868264,-3360.7908686775,91478.7767202474
16619475141,9,-2,0,-7151.6976523492,-19239.3066948026,71713.7768519064,-23921.2904199088,-61646.3218421788,-7047.8585276622,84298.6796635134,-75825.9838378847,-43797.0406647322,-11228.3506282109,-36236.0216912592,-69554.3756967389,80069.9183096682,27447.4646238038,-3549.6700264600,82227.7985027328
16619475141,9,-2,0,-68284.7373717490,-71740.6674618851,45098.3271691586,-23959.6795033852,-55919.7656802166,-7078.9834961353,74765.4108797066,-71129.5327212560,-43066.9423522652,-11367.5247444717,-36352.9289223341,-63352.7196446282,70467.6100140880,-27357.5453442822,-3693.4800352104,29246.8601330709
16619475141,9,-2,0,-66274.9988875037,-66038.8725629577,-825.7729125858,-23912.7121936486,-50944.5161262839,-7022.4645443927,70979.2860008863,-67970.0928996045,-43391.3939880490,-11301.3324737549,-36280.0444183646,-50923.1983214501,69524.6865164909,-46857.2042480053,-3578.9455050160,46938.8859967777
16619475141,9,-2,0,-48424.2819218320,-46911.9467160117,64148.5600230295,-23849.7200271963,-56831.6128801279,-6967.1015238484,81386.6456213628,-71620.8764866632,-43834.2981524041,-11118.9508660758,-36124.2127251532,-50730.3524945033,80401.0256756141,14755.7294340913,-3394.9577613563,88762.5209199779
16619490033,10,-2,0,17169.0095834695,6784.6834130788,76150.0947781574,-23887.0748564427,-62333.0544831688,-7017.0377516097,86918.2752802214,-75722.4002348310,-43753.4681424093,-11162.3408729464,-36179.4419010326,-67781.4814311521,82636.6574513773,47699.9754330528,-3493.9541427078,85336.1339977279
16619490033,10,-2,0,-59152.8200676469,-66627.3632197992,62002.6893467291,-23938.2886923705,-58867.4510740584,-7059.0041379520,78761.6475472654,-73887.0370137552,-43577.4380724718,-11307.8421915552,-36303.1508746314,-67126.1171125716,74438.7325554042,-5846.9190189347,-3637.7154806709,57258.4435169799
16619490033,10,-2,0,-66957.6188469675,-67400.5716821099,-9024.5008765492,-23939.7853190797,-49781.2478069202,-7050.5840917506,69180.7422303968,-66566.5004002909,-43099.9289783522,-11358.9830213020,-36331.6841236812,-50138.5765595195,67460.1568934519,-51212.0229409363,-3640.7330694829,28739.0899769527
16619490033,10,-2,0,-63105.3868713082,-63388.4805055908,51843.9522754358,-23869.1883421130,-55986.8340251047,-6985.9006154398,77848.6687515496,-72007.4198793345,-43853.1824178733,-11176.1512088405,-36176.1322874967,-54353.6249190453,76407.7335906864,-9061.2351532576,-3454.5673080919,83190.7013585131
16619490033,10,-2,0,24765.3270454258,19676.2000169272,78849.5956599017,-23859.1743276277,-61984.3404599201,-6989.9037876946,88526.7352909430,-74782.2266367159,-43731.8826482454,-11093.8002367428,-36122.3510675393,-63370.0586126008,84880.1495592882,61832.8769698681,-3425.0119725090,89046.4906284318
16619490033,10,-2,0,-42977.5219483134,-53606.4918310262,66278.2111594649,-23941.9755045078,-60113.5814087864,-7067.3998487599,80948.3651818005,-75043.5522613822,-43827.8371053911,-11278.2016820945,-36272.4396078503,-68830.7871020722,77251.4660237828,12790.5125525211,-3587.2195388556,77196.3098540844
16619490033,10,-2,0,-65931.3952969206,-69270.7101807056,588.9530293209,-23969.9977102911,-50606.8625394472,-7085.5540524197,69436.3733729500,-66839.3975046358,-42923.6433867814,-11402.4095312631,-36370.8276043606,-53552.5037602228,66759.8937735947,-48440.8056541176,-3693.3705259390,16731.8485720148
16619490033,10,-2,0,-64073.3514889669,-64439.3801447946,35957.7829680090,-23886.7098255380,-54927.8672029072,-6999.4675973974,75655.5752438794,-71827.8490096215,-43787.9757305991,-11222.6074753104,-36214.6795510318,-57392.6532129369,73606.9609682848,-22843.3298229707,-3508.6283850763,75115.2321633662
16619507850,11,-2,0,7739.0688810831,8569.4776861584,77947.7746421725,-23841.1661363297,-60350.9366707115,-6967.0771884547,87889.9267100175,-73205.8406748197,-43738.9642477963,-11061.8722002794,-36084.8137228405,-57002.4595112188,85547.3287114837,61780.5072027422,-3365.7187858908,91772.8456170642
16619507850,11,-2,0,-18513.1142130158,-30876.6501163230,69487.4046934254,-23937.1935996564,-61195.5086748888,-7062.4110930625,82959.8801497819,-75585.4771424824,-43813.2358692036,-11253.2457359106,-36253.6891870462,-69739.1543406921,78989.1834778545,28729.4774964626,-3565.8043924473,81585.6361352052
16619507850,11,-2,0,-61829.0319776721,-70093.9035415649,26178.7145406820,-23978.3569180084,-53643.0557599791,-7095.0935267289,72345.5601740440,-69011.7937600102,-42980.3205185827,-11397.9561542259,-36376.4977510801,-59613.5742432413,68447.6871676018,-32707.4261156965,-3710.1619475547,19521.8162796377
16619507850,11,-2,0,-64101.1060054200,-64349.4000267890,17085.6973633228,-23904.3043151440,-52986.2921562640,-7015.9183235020,73553.1919160242,-69892.0657866660,-43631.1219508546,-11257.1637342876,-36246.1330473191,-53641.2306054557,71848.6557711887,-28825.3224443369,-3536.7479324341,63687.9518597970
16619507850,11,-2,0,-24759.1701908334,-21966.9636269952,73066.8125709207,-23845.6316810638,-58414.2895412816,-6967.5638963276,84987.0306081809,-72110.5411099089,-43781.5146835862,-11075.0011451513,-36093.4649552817,-51972.6865078225,83755.2459880072,45788.4789329559,-3356.2279823689,91835.7526096389
16619507850,11,-2,0,9649.5797977373,-1721.5952557812,73850.0593831103,-23924.5026918701,-62256.7508563921,-7055.5485120543,85730.3795424881,-75922.6561891430,-43792.3926045459,-11212.0337467713,-36226.6525647056,-69716.2182321808,81426.3853191866,46837.5047468490,-3534.3508961600,83970.7115633479
16619507850,11,-2,0,-53749.5596102703,-65442.8014309954,52256.3763592494,-23966.3230658505,-57506.9078861044,-7086.1381018672,76819.4519480843,-72084.8307665220,-43327.1850519143,-11351.4755523622,-36342.1848460394,-64822.6382593237,72279.3435679336,-6195.4748621247,-3672.7827829146,39704.2046520961
16619507850,11,-2,0,-63566.3600654454,-64826.5075869134,1592.1674646756,-23929.9781554404,-51271.8393385178,-7042.3830640919,71472.3332438488,-67996.0952677152,-43449.7745974055,-11314.0477169349,-36298.4541436578,-50572.8781622208,69873.6317259792,-35829.1704125905,-3584.3844654959,48801.3588463750
16619514867,12,-2,0,-52135.8796576118,-51043.4273337576,64621.0925291484,-23867.1563367435,-57275.8676588303,-6987.6527637823,81286.9800166861,-72048.7170423515,-43834.8578664579,-11131.4349230161,-36146.9784859090,-51763.7063148884,80294.4974899292,25262.9980131810,-3403.4021429515,88885.6215087356
16619514867,12,-2,0,30124.1389063082,22999.9767518693,78147.0693484355,-23898.1839636420,-62733.2865347658,-7028.9985975867,88523.7785406150,-75657.1935475568,-43764.0662063421,-11147.1555873114,-36176.4486476141,-67563.3511302072,84295.7837516696,63946.1017155926,-3474.3641508229,87543.7192323143
16619514867,12,-2,0,-40511.8841995061,-53833.2368613217,65941.2998021345,-23950.9917678536,-60277.1395894804,-7072.6562937874,80647.6405548215,-74402.1929618450,-43737.1877640602,-11293.0949430058,-36298.2594605086,-67994.4769640377,76473.9745321905,21659.6441083381,-3614.5846890104,66174.3476993843
16619514867,12,-2,0,-61329.5236876966,-64310.3782230778,-2478.7058551952,-23961.1639623976,-50825.7350698983,-7074.4936160076,70511.2312071982,-67161.9144766247,-43325.5910836305,-11374.0831330593,-36352.2475313120,-51018.3253752118,68337.4234989923,-40523.8815485735,-3650.9174317237,34558.1936409501
16619514867,12,-2,0,-61849.0965097331,-62995.8775999017,53258.2280125599,-23892.8910155241,-56845.3015390537,-7008.7150469828,78368.6917783685,-72645.5547392136,-43845.4194273002,-11198.0895662122,-36204.9940643607,-56323.2830099559,76749.7675483793,8471.4912236433,-3470.9085249251,83631.6708590734
16619514867,12,-2,0,29368.9508029923,28304.8492127355,80456.5347085203,-23867.9107339466,-62065.8640286338,-6995.6956113823,89990.1928586255,-74510.7166498088,-43737.0539193951,-11085.6965506587,-36120.8787762237,-62560.2497182468,86652.8004709385,73599.4048285577,-3405.1056205067,91340.7585351848
16619514867,12,-2,0,-20940.9347600974,-34678.5808333163,69191.6444867502,-23955.2017909544,-61484.5158098273,-7077.5477079102,82822.3973433795,-75248.2250896409,-43844.0201421656,-11273.3346033653,-36281.4193681056,-69519.8924439427,79167.5254101883,41956.9442095924,-3580.0649331238,81481.5414888850
16619514867,12,-2,0,-55177.4875032299,-60910.7602338383,10354.1867853603,-23986.4971071830,-52544.6534323785,-7099.2548790423,71766.6211592084,-68015.8677750524,-43321.2350481679,-11412.2410302960,-36387.3270012525,-55580.0800880106,68453.6980098324,-33653.4402082866,-3702.5936401308,27653.8896004050
16619540260,13,-2,0,-60772.0119869663,-63142.7051974642,38659.2428489418,-23891.9784382623,-55767.9371592600,-7004.2373345520,76764.1741014176,-72014.0147710125,-43784.4470985205,-11228.0464357903,-36225.7034843534,-57456.4727827733,74746.1372479391,-562.6829718801,-3512.5463834533,76991.3084980115
16619540260,13,-2,0,4218.5891593013,6563.6937033805,79465.4879699885,-23841.2391425107,-60484.5988203116,-6966.2619527676,89000.5697406220,-72991.4215214058,-43729.8871459664,-11058.4165743817,-36088.1355040732,-56173.6811775178,87009.1436400952,70596.1860664160,-3357.7246090781,93607.3205962719
16619540260,13,-2,0,4661.4081497786,-7947.2703414205,72684.5157044407,-23935.2346004679,-62525.4136022427,-7063.3480057178,85336.6572086913,-75793.1067210691,-43816.8131720695,-11246.7360181103,-36254.6869381856,-70604.8616342507,81228.0031901853,55447.2940125818,-3562.5434496987,84228.5815621165
16619540260,13,-2,0,-45206.0599568289,-54031.3999717801,36278.5356239586,-23979.1356506051,-56194.3175913295,-7097.1011967047,75454.0173460074,-70351.8343788177,-43448.9836971120,-11391.4464364256,-36376.7411050166,-61696.1242252751,71032.6170160613,-9293.7720072409,-3707.3512095886,34305.9451181137
16619540260,13,-2,0,-59846.3179480705,-62536.7538956817,22125.4843812044,-23910.6923559760,-54027.0439363175,-7022.6105567546,74940.8934032871,-70151.0430458455,-43715.4440898376,-11266.2286684207,-36257.9965517215,-53203.2178552234,73219.3589859899,-9034.2837047948,-3544.0850536183,67702.3305633189
16619540260,13,-2,0,-27166.2569825287,-27743.4681844155,74830.4958900125,-23849.1724808392,-59161.8484986895,-6972.7595028710,85831.9676432628,-72164.2979944726,-43757.8850163560,-11081.3405151961,-36102.7975787449,-52163.3299816443,84744.8326029202,58058.8102785994,-3360.6326886188,92930.1761003784
16619540260,13,-2,0,29302.6490230041,20412.6376994389,76971.9010215789,-23919.0272282997,-63251.0098668852,-7051.3263212568,88439.5050724193,-75990.4910989309,-43788.8761401640,-11192.8817919720,-36210.5181987184,-70398.7043469796,84015.5251907467,68471.4020087097,-3516.0871832287,87085.5081053559
16619540260,13,-2,0,-32141.3605240996,-43055.7480711881,60047.4621442505,-23956.6132437858,-60095.4150374298,-7078.1682604482,80039.8884339091,-73072.9815932099,-43666.8098056363,-11327.4930219242,-36324.1766547415,-66266.5301705149,75390.7209871344,25872.1859223184,-3654.6164115579,54270.7020651970
16619571296,14,-2,0,-58856.3541345559,-61160.2710248895,9608.0514484806,-23933.6771352746,-52694.2796002102,-7046.3497332562,73268.3217980055,-68656.4848450835,-43678.1866021657,-11326.1059044864,-36306.4483204704,-50817.7408930856,71405.6055944717,-19952.7839334095,-3600.2268067594,56411.2797933794
16619571296,14,-2,0,-47454.1636218357,-53174.7819477482,67013.3347307198,-23870.1982609493,-58638.3211751856,-6992.2278177877,82248.7391089651,-72390.3372983524,-43796.3106029229,-11148.0803322699,-36157.2236866339,-53598.1691263993,81182.9705442436,43871.1054352935,-3417.9912114422,89534.9628173888
16619571296,14,-2,0,42388.1308819070,38025.2571736792,80785.5005598254,-23882.0739330485,-63237.9782635878,-7013.8741504357,91166.4197751056,-75440.3895255657,-43751.8376710350,-11123.8422801986,-36153.5368744965,-67668.0541613687,87083.7559570134,78856.1905515797,-3451.5983900671,90803.1288510631
16619571296,14,-2,0,-17796.3638639636,-29202.3385303957,69989.4681997336,-23943.9710067868,-62301.7348315465,-7066.9374762806,83335.8498139140,-74805.9536455206,-43826.0484539581,-11278.3355267595,-36283.3175288100,-68872.8021592018,79353.9466932126,55204.7309764164,-3595.6152496635,75613.1343173610
16619571296,14,-2,0,-54265.8958249519,-57594.1989431121,7664.0550301697,-23967.5763386233,-52766.8964148496,-7081.5265447713,72808.1638395554,-68237.6727204379,-43687.5800641130,-11382.4301730798,-36359.4873109216,-52345.3100553283,70171.9228135936,-25649.2737165221,-3662.9756192753,46136.5967390602
16619571296,14,-2,0,-52206.2576160357,-59471.2243581096,56530.8152469680,-23889.5083958073,-58380.4876795075,-7004.5415269726,79840.2773675288,-72968.9112822833,-43811.5323916484,-11198.8196280216,-36204.3613441260,-58357.4663971185,78049.7886123360,31220.8012532631,-3478.7445216791,84708.5241956006
16619571296,14,-2,0,33416.1822879361,31553.2835689500,82410.9466753117,-23854.6844475000,-62272.8243838952,-6984.1119640068,92090.1791502066,-74066.0116663239,-43723.1705773201,-11071.7158670091,-36103.2842866178,-61927.9553528426,89091.6692867353,82850.9549278230,-3381.8044810907,94101.0005594691
16619571296,14,-2,0,149.5288262571,-10748.7121871473,72420.7200373193,-23951.4784757265,-63095.7257200308,-7078.7644775925,85383.0283012835,-75463.3986402578,-43846.9768924936,-11269.5991204407,-36275.1043334545,-70456.3670622236,81585.6239675084,68859.2960157283,-3572.9955012696,85041.9677593365
16619645211,15,-2,0,-43913.7410449611,-49698.5318039178,21565.6243149872,-23986.0103993100,-55079.9025747099,-7102.3941448227,74704.6940725601,-69405.8324539244,-43736.0805036493,-11408.5055473714,-36387.2053242843,-57734.6993383267,70847.2056518733,-14485.5213907442,-3703.9807575686,42799.8127362144
16619645211,15,-2,0,-53177.6535241984,-58296.3358882800,42811.5667313453,-23898.6341684245,-56999.2229038639,-7011.0269093792,78331.0205890047,-71959.6008308203,-43802.4187867280,-11236.7220036251,-36232.5660653615,-57039.2424587146,76393.1080191052,20642.8018525417,-3517.0362635809,79396.9716691785
16619645211,15,-2,0,5937.7752111116,3358.4303354939,80752.2949151956,-23844.1350543545,-60952.6414463028,-6967.3570454816,90295.6142165781,-72614.3689322564,-43718.4495109528,-11059.8280272131,-36086.3833557307,-55459.7172310380,88595.5801195672,79040.0809536648,-3351.6407606667,95249.2417732565
16619645211,15,-2,0,22054.5223733331,12870.6003330097,75781.1093720017,-23941.2819457889,-63666.9869181711,-7065.3435079968,88051.9030901245,-75937.4521084797,-43826.5838326183,-11236.5759912632,-36247.1429661554,-71541.0077247174,83741.7641799274,74861.3288337618,-3550.7407837805,87091.2634259532
16619645211,15,-2,0,-30916.7670127483,-38899.7008735568,46118.4912061877,-23974.3294103600,-58841.4852090383,-7090.2264479997,78675.9261231478,-71581.9398568298,-43796.2497644387,-11375.2633996511,-36363.3201354209,-63528.4820252355,73956.6727426729,14893.5286006111,-3692.2510978313,50110.0068073792
16619645211,15,-2,0,-56022.7530661260,-59044.4667274386,27562.6075388393,-23917.3724215318,-55158.1773683719,-7027.0639337918,76359.0749710914,-70325.2114581691,-43812.2259503673,-11285.2832816454,-36274.6297932784,-52848.7728467711,74596.2555584741,5724.9865290720,-3558.6254513217,71761.0605217603
16619645211,15,-2,0,-24265.0278551569,-29458.6510639710,75746.8329700515,-23855.2928323412,-60083.8192223575,-6974.1587880057,86574.9637143621,-72062.7220613947,-43746.6298967948,-11103.0963571155,-36122.0468751188,-52522.9097581559,85565.3734058722,68922.4220268457,-3377.0834147234,93434.6244752639
16619645211,15,-2,0,41525.6723634000,35274.9926607896,79659.5383989208,-23908.3196550956,-63866.8900092752,-7036.5182342232,91036.4809407334,-75946.5778810969,-43788.1582460515,-11178.4630712368,-36203.4122637738,-70943.2331151999,86597.5104565750,80997.0846398795,-3504.9780760294,90013.0559609558
16619657735,16,-2,0,-18662.2050021873,-27992.0298951145,66188.0241906133,-23951.0161032473,-62123.1130421857,-7069.1763324960,82749.8657026180,-73824.1300211806,-43829.2728936162,-11318.5984355466,-36320.3803333327,-67529.2694114062,78180.3723346398,48536.5654281141,-3645.3446265788,65906.1229906193
16619657735,16,-2,0,-56194.3175913295,-58590.1249280700,15861.2498643333,-23941.0872626397,-53841.2188704376,-7050.3894086014,74618.1817481490,-69110.1939242174,-43836.2206485021,-11347.5575539852,-36330.4065155148,-51183.3558472214,72535.5709276311,-10614.3321434348,-3621.7757978328,61806.5095708528
16619657735,16,-2,0,-43214.0498068546,-50346.8388583410,67922.4320311491,-23873.5687129692,-59816.5800970352,-6988.3098194107,82933.4640799793,-72554.9905717605,-43783.3398381096,-11169.6901618275,-36177.9452743233,-55355.1237091480,81726.8300891386,56259.8284710242,-3440.0634134790,89558.0449382619
16619657735,16,-2,0,47243.2852681973,44316.9906853702,82710.4667003053,-23873.7512284216,-63407.0605786394,-7000.7573732606,93223.2959168431,-75149.2165405927,-43745.9971765600,-11112.4289805787,-36144.1555802460,-67260.8500194921,89349.6487947753,85833.6346177276,-3433.8457204025,93373.9928419952
16619657735,16,-2,0,-7512.7497201764,-17265.1830591580,72330.8737639787,-23940.3815362240,-63465.7332127196,-7062.4354284561,85292.7318231605,-75062.5582038197,-43843.5456019895,-11271.7284673847,-36279.9957475774,-69694.1338624472,81445.8049633160,70398.0472913512,-3583.0703542390,81674.8010175237
16619657735,16,-2,0,-50305.2618382970,-53927.5121763059,15429.2722917252,-23972.6137651080,-54231.3273982779,-7084.8239906103,74444.0133358254,-69011.5139029833,-43864.2063511949,-11399.0755823336,-36377.4103283418,-53780.9644357704,71437.4849601478,-17111.0913465923,-3684.0622378694,53286.7855970034
16619657735,16,-2,0,-49031.4621609936,-55267.2972734800,57363.6210883174,-23891.0780286974,-59238.3589763122,-7003.4951050458,80706.3131889017,-73043.7182823508,-43805.1930216036,-11218.0810920923,-36219.1207603722,-59516.1474947800,78758.6056230597,42526.7939549012,-3500.0623265129,84881.0499688531
16619657735,16,-2,0,30527.2303666586,29299.7531111602,83222.3495379496,-23845.5951779733,-62280.1493373826,-6970.9586837412,93110.1606717833,-73623.7767252941,-43709.3724091229,-11067.4085023338,-36096.9692519667,-60720.1167600164,90450.5576679215,86751.9185292582,-3379.0910846992,95729.3304191025
16619675201,17,-2,0,7799.6275081709,-1738.3015035191,74401.8157632434,-23943.8006590313,-63787.2280981754,-7070.8798100512,87094.2323439780,-75630.3759437591,-43840.0169699109,-11265.1579111003,-36271.5391982854,-71194.7515762270,83097.4968008494,76150.3016290034,-3577.5583875782,86803.3513837287
16619675201,17,-2,0,-39545.2823638916,-45366.0773377474,29962.3937124408,-23982.5791088060,-56713.1238484661,-7098.5248172330,76646.1717776287,-70290.4240129523,-43872.3465403694,-11410.2333603202,-36390.7826271502,-59661.5879749046,72416.9602190010,-4774.4460532637,-3718.3508075165,50551.1223203013
16619675201,17,-2,0,-54277.4429692369,-58308.3819081347,42731.2599323139,-23898.3786467912,-57257.0198964516,-7009.6397919414,78718.6469066932,-71721.5885132667,-43815.4138869349,-11250.0091285557,-36245.7558487176,-56201.4721970614,76839.1027784533,25673.4874331998,-3533.7546790156,79665.6100796354
16619675201,17,-2,0,-2304.5252751747,-4751.0597399700,80466.5730583993,-23845.2423147654,-61043.0961044846,-6968.5494797703,90232.9505779400,-72340.9486169481,-43721.2602489189,-11073.8087108627,-36101.4104613070,-54427.0813047654,88781.7823840486,80896.9323273299,-3362.4335077486,95577.5749043268
16619675201,17,-2,0,27113.2909982585,19056.1706899205,77476.1790487089,-23929.0534104819,-64006.6968457708,-7058.7607840156,89545.6217198057,-76021.7012412817,-43817.5675692725,-11225.3817101861,-36244.3808989766,-72001.5672171626,85116.8721009785,79207.1555987406,-3549.2319893744,88568.6286711044
16619675201,17,-2,0,-29715.1826160891,-37470.9212418196,53134.0079956945,-23966.4569105156,-60177.7173387401,-7085.7974063562,80363.3301508566,-72314.2526901186,-43846.8065447381,-11366.4783225449,-36362.8820983352,-65006.4799906215,75544.1556440717,25412.4781686508,-3696.0717546337,56699.7758850513
16619675201,17,-2,0,-58316.1083956173,-60653.0362474315,26141.1771959832,-23921.8136308722,-55066.2625865714,-7032.5028942717,76264.3251159312,-70069.3126262858,-43836.5735117100,-11308.0855454916,-36297.0670262199,-52271.3304586448,74468.0567047475,4576.5019613481,-3587.3655512175,71267.4292293504
16619675201,17,-2,0,-33392.3092667695,-38446.7948624132,74657.0453718015,-23855.7430371236,-60289.5263048461,-6975.2052099324,86020.8102979549,-72063.1479307835,-43749.6474856069,-11123.8787832891,-36140.5417742896,-52755.6169598947,85053.3932266532,69462.1323871241,-3400.4818957140,92904.3805831137
16619713973,18,-2,0,43496.4742178119,38421.3278729628,81035.4250525686,-23896.5413245709,-63930.5757344465,-7026.3460396793,92241.1315969920,-75844.6369171143,-43778.3267470185,-11164.7744123110,-36192.7290259632,-70624.8774955245,87860.7242376424,83840.7362258852,-3497.4827747864,91411.5866983911
16619713973,18,-2,0,-19933.8266617593,-28769.7647406433,69473.8620468615,-23946.8669186306,-62908.6717167717,-7068.1664136597,83920.2764600168,-74305.0704058042,-43845.8939674763,-11310.4947494626,-36314.2964849212,-68406.5603523403,79508.2452566243,56841.1523544371,-3639.2607781674,71818.2973676155
16619713973,18,-2,0,-57195.8772199163,-59318.5927691627,16037.4624497232,-23949.3491287825,-53976.9495284975,-7059.3935042504,74677.5357732513,-69067.3149606133,-43863.2329354490,-11366.4783225449,-36347.2587756146,-51525.6453265476,72402.2859766326,-11670.3665506979,-3648.3013769068,61595.3756955811
16619713973,18,-2,0,-48978.8977107185,-55518.2560204532,66217.8593832231,-23878.8494933904,-60027.2272644340,-6994.3815001254,82535.2031952676,-72770.5048178884,-43790.7012946875,-11185.4838323037,-36193.1670630488,-56827.4028570272,81142.0019090408,56094.2504526576,-3464.3258009439,88601.0677508343
16619713973,18,-2,0,43093.4435959456,41154.3142563638,83356.7660847527,-23863.6155369681,-63229.2905280562,-6989.8672846041,93751.3861266555,-74809.8594762008,-43734.4987030623,-11096.1364345328,-36131.1483123423,-65917.9621596281,90127.6634973311,87300.1827804031,-3428.5771076781,94416.6671181467
16619713973,18,-2,0,-8862.6948441977,-18057.2636192411,72997.2133450935,-23941.5983059063,-63628.1232945186,-7061.8757144023,85909.7922321424,-75210.0185216169,-43846.3320045620,-11271.1200825435,-36279.2170149807,-70171.5942857794,82150.5214602103,73735.5005175223,-3589.6409105234,84355.6244846448
16619713973,18,-2,0,-50419.7355300072,-54054.6159373183,18607.8275650856,-23968.5619220659,-54802.3574101786,-7081.6725571332,74972.3955703617,-69294.6927111437,-43876.4470541987,-11402.1540096298,-36377.6780176719,-55151.1079365177,71633.4943882686,-15141.4454233786,-3696.9721641986,54084.6701484710
16619713973,18,-2,0,-53704.6608089937,-58750.0084643234,54600.9333569716,-23882.0374299580,-58932.3292335184,-6992.9213765066,80430.8852036176,-72856.0680619474,-43798.9874962239,-11216.0490867229,-36217.3442766360,-59423.6121604415,78392.6986442002,40661.7902243648,-3507.6914724209,83904.0812555454
16619726580,19,-2,0,20369.1503509937,19713.2263183594,83006.6527763693,-23835.0214494342,-61987.2485394608,-6958.8153223119,92846.6448616889,-73181.6999643229,-43703.9699517335,-11054.4985760047,-36084.9719028992,-58838.4797879230,90556.2584502224,86806.2594632694,-3364.4046746339,96197.3730450938
16619726580,19,-2,0,10026.3525298597,1346.3191503681,75440.5233702307,-23930.9637388831,-63962.0779015211,-7056.3759154383,87981.1235977054,-75751.7000487806,-43829.8691107605,-11250.2646501890,-36256.2687387726,-71646.1974637518,83837.4144446525,78043.7899378023,-3567.6052115771,87513.2391517728
16619726580,19,-2,0,-39416.0249205415,-45054.7424791388,36307.7624317273,-23968.1360526771,-57726.8511738759,-7085.5783878133,77816.4365226657,-70841.8883683617,-43882.9689396958,-11393.2594232522,-36375.4269937597,-61278.3463548593,73324.0863525450,2799.1421510273,-3711.3543818433,53978.1176273925
16619726580,19,-2,0,-57118.8800344207,-60050.6257454245,39721.8113093988,-23891.7350843259,-56923.9413636204,-7002.9232232951,78404.5378132089,-71313.9585020013,-43817.7865878153,-11252.4548356171,-36244.2348866147,-55017.3971161304,76599.8980266111,24738.6067832027,-3537.0277894610,78785.0946990432
16619726580,19,-2,0,-12325.5483538260,-14513.5192611338,79755.6145330347,-23836.7614300798,-61030.3930290014,-6957.5012110551,89690.5754920574,-72111.7457118944,-43720.0191438430,-11072.3242518503,-36094.8520727195,-53413.8163518349,88472.3456861444,81689.6212722541,-3359.1238942128,95519.2307980608
16619726580,19,-2,0,32275.8379093868,25642.9830172646,78981.8098535797,-23920.8037120359,-64191.8405206287,-7045.7413484150,90848.4656894253,-76047.3750815781,-43810.0844357264,-11205.4996935774,-36224.5840562457,-72195.8731677282,86366.7014155407,82387.3778465657,-3535.9083613533,89858.2828573680
16619726580,19,-2,0,-27539.3185671201,-34624.1790608209,59366.1197929531,-23952.3180468073,-61312.6227568096,-7074.2745974648,81943.9504712472,-72969.5805056086,-43875.3762968783,-11346.9735045377,-36345.8959935704,-66186.1990360898,77144.0860993204,35827.9658106051,-3679.8035439814,63446.8611149472
16619726580,19,-2,0,-58649.9048225611,-60349.3427024277,25946.9929223858,-23919.6842839282,-55160.7082493110,-7034.7052473966,76399.2040352135,-69897.3465670871,-43862.2230166127,-11318.8174540895,-36306.1806311403,-51604.6015112317,74552.9750608749,6815.7110399773,-3597.9392797567,71543.1979101456
16619769922,20,-2,0,-37255.7841942932,-41749.1686186438,73845.2044720780,-23856.1080680283,-60774.1169985166,-6978.5999973460,85761.1394800565,-72157.9464567311,-43760.5619096570,-11140.1834970318,-36151.3345213716,-53366.5326819809,84762.0498939247,74214.7739276812,-3413.9150330065,92469.0690615762
16619769922,20,-2,0,46966.9933764387,43544.4514463848,82527.7322294183,-23885.2131988288,-63946.5154172845,-7018.8994092236,93638.9322726179,-75659.6270869214,-43771.2086443771,-11148.7373878984,-36177.6045788123,-70147.8429415811,89385.7746866427,87269.3863397442,-3481.3727441929,93109.6374608199
16619769922,20,-2,0,-14901.5836159079,-22515.1183688687,72230.4294267053,-23941.2332750016,-63478.6188036551,-7066.8523024028,85456.3021715513,-74652.0444484073,-43861.2252654732,-11297.6943324048,-36302.3356389443,-68969.2798273109,81244.4660839868,65457.0498039750,-3624.6230388894,78234.5185855020
16619769922,20,-2,0,-55266.1048391914,-57292.7807574142,20222.2010764630,-23957.2337963238,-54673.1243022221,-7073.2281755381,75550.3855048450,-69391.5962486416,-43908.7644569605,-11384.7420354762,-36363.5878247510,-52155.6278295554,73034.4343296749,-6657.9446829710,-3670.5317590023,64733.0231722227
16619769922,20,-2,0,-46891.0182774763,-52078.1439361869,65906.6340338859,-23878.7764872095,-60759.9537994147,-6998.5428524388,82910.7104869204,-72953.3731334404,-43795.8238950499,-11195.9845546619,-36203.8989716467,-58184.5390898708,81323.2154178248,65146.6153549313,-3482.4800046038,88270.8851298470
16619769922,20,-2,0,42647.1811472674,42143.5966788563,84495.8450228324,-23851.9467157149,-63150.4073495531,-6982.1529648183,95014.1740383341,-74374.1342529713,-43727.4049358145,-11085.9034015047,-36117.6300011720,-64594.5547823776,91726.8638907703,91270.6604337878,-3413.6473436764,96312.6498047944
16619769922,20,-2,0,1820.6403079200,-5907.6723291716,74960.1305319641,-23940.7222317351,-63988.3114558713,-7069.1641647992,87709.6014431015,-75348.3165637065,-43849.9944813057,-11275.4517826125,-36277.7203882715,-70767.2152129593,83904.9329943230,78967.7926668397,-3591.4417296532,87452.7900339565
16619769922,20,-2,0,-44167.2185051766,-47878.0618437533,27139.7435711516,-23975.2906584090,-56163.5819891547,-7092.7816643325,76911.9629470291,-70178.9435746605,-43922.3436066149,-11408.7854043983,-36384.4067540150,-56963.3768690235,73205.9380163942,-5708.7061507229,-3714.2502936872,61666.4472127239
16619810193,21,-2,0,-49713.1330401053,-53132.1828411711,55609.6840943808,-23882.9500072197,-59641.8276352641,-6998.6158586198,81392.0967495395,-72599.6095160102,-43803.3922024738,-11228.3141251204,-36223.2821126856,-58730.1751185020,79416.1236239778,53805.9082142574,-3520.3823802072,84589.0739158898
16619810193,21,-2,0,18742.5969750965,18724.1507467129,83741.4843229004,-23830.0083583431,-62258.4908370378,-6957.4403725709,93910.3449179505,-72754.3461165076,-43705.0528767508,-11057.9055311151,-36085.1544183516,-57342.4614635423,91970.9843921290,93254.8102516145,-3362.9202156215,97826.4816373239
16619810193,21,-2,0,23777.4317403712,16944.0532046069,78053.8526230749,-23923.9673132099,-64284.5462027227,-7051.8130291297,90411.4506903326,-75886.6154711534,-43825.7807646280,-11238.7540089945,-36248.4084066250,-72622.0589166485,86121.6440015266,82327.6344551651,-3564.0035733175,89866.9219221123
16619810193,21,-2,0,-29042.6131742010,-34278.6894772303,45944.9798494925,-23962.2712228085,-59233.3458852211,-7081.1615138666,80547.8167700860,-71846.2100641273,-43907.7910412146,-11384.8272093539,-36367.7248416708,-63074.9919646445,75856.5125892135,15621.3758891659,-3710.4661399752,64871.2603758281
16619810193,21,-2,0,-53845.8182598366,-55707.2446875071,43243.1792730487,-23890.6521593086,-57801.1714660704,-7004.1886637647,79612.1452197954,-71237.1559996549,-43828.1412978117,-11262.0916515009,-36251.3773246498,-54154.6465728997,77867.6625262902,36176.8988523966,-3548.7817845920,80840.8635803698
16619810193,21,-2,0,-10571.2219935911,-12302.2107113196,80241.8356980795,-23830.5680723970,-61944.6616005805,-6953.8630697050,90586.9818847003,-71931.9558236386,-43718.9362188258,-11079.3206775235,-36099.7069837518,-52960.2411173661,89508.1817166815,91107.6011286635,-3368.0063128935,96417.8638792224
16619810193,21,-2,0,44382.4528942776,39682.0837792719,81718.4222106340,-23896.8576846883,-64328.7514452804,-7026.0905180460,93552.4321159036,-76017.3573735159,-43789.1559971910,-11181.1034614474,-36201.5992769471,-72878.6513072507,89079.4164160346,86575.2314036922,-3518.7762442266,92707.7627701518
16619810193,21,-2,0,-13686.9919513450,-19722.3277555829,66561.8158370140,-23936.0376684582,-62296.5757280936,-7055.8040336876,84927.7739246532,-73681.4637759316,-43870.7404043888,-11318.9634664513,-36318.6160172934,-67343.5295194040,80224.3263823513,48484.2321640787,-3661.9535327422,74603.7265243233
16619814899,22,-2,0,-55188.6696166102,-56647.6738072555,33771.9900784326,-23915.6324408861,-56345.6350690196,-7026.8205798554,78100.0655356084,-70277.2098942026,-43865.8611579628,-11318.9269633609,-36303.0535330568,-51664.1258840895,76153.5017332678,16988.6478134630,-3608.9875484719,76264.1426004788
16619814899,22,-2,0,-29600.2952226869,-33030.3202862869,74945.2494387497,-23847.4933386777,-62164.3737021123,-6967.2110331198,87038.3947832575,-72248.0969224922,-43754.8065890598,-11134.8175427329,-36148.8279758260,-54411.4701497416,85928.9563546385,84704.3993463776,-3421.8118682446,93087.6382649641
16619814899,22,-2,0,56320.5331104739,54751.1314065540,85252.4567466766,-23861.1211591194,-63966.3730984996,-6989.3684090343,96640.8125881091,-75328.1911931613,-43743.1864385939,-11107.2333740353,-36142.8658043828,-70020.1064603338,92623.0269294769,92251.1821145677,-3452.2919487860,96615.3455986587
16619814899,22,-2,0,6100.1044544265,254.0128388757,76213.6223232700,-23927.1187466870,-63736.8660010252,-7047.4934967575,88880.5597468573,-74873.4721951911,-43843.1075649039,-11268.5526985139,-36274.5811224911,-69592.9351279708,84792.0189311996,75530.9901961093,-3601.6139241972,86340.1393333762
16619814899,22,-2,0,-46581.4233995133,-49127.4166181394,36020.7142959773,-23946.9642602052,-56607.5447431334,-7059.6976966709,78585.9581728390,-70463.4851648650,-43901.7071928032,-11370.4084886187,-36349.6679795855,-53457.6078927007,75801.0035563072,8893.0654154677,-3668.2929027869,74888.3897914961
16619814899,22,-2,0,-31355.3638124280,-34324.7198743115,69835.7901888599,-23866.4019395405,-62252.8085226215,-6979.8411024220,85435.5684161650,-73084.8207622187,-43784.5931108824,-11188.9272905045,-36193.5564293472,-59242.5689994129,83643.2910095393,77057.8779673298,-3483.1370602322,89932.3354602324
16619814899,22,-2,0,50138.5522241258,50584.8755112882,86945.2145609874,-23834.4130645930,-63249.2455508459,-6961.6503956717,98266.6237345002,-73860.2559130479,-43711.1002220718,-11059.2439777656,-36092.8930735310,-63461.7300404649,95344.7338579230,96805.1251660061,-3382.7657291398,100165.2833144489
16619814899,22,-2,0,25511.7057362419,19944.4612287826,79117.4796731556,-23931.1949251227,-64098.0762489111,-7054.9279595164,91630.6539119914,-75510.4389561753,-43841.1485657154,-11256.6770264147,-36261.5495191938,-72111.2103332342,87686.1056205364,85004.0045452489,-3571.8639054651,91768.9884571714
16619871454,23,-2,0,-28051.9679696643,-32108.4347364967,45473.1409020925,-23972.2365665065,-58261.8161323933,-7085.6635616911,80945.9681455263,-71614.8534767359,-43925.0204999159,-11397.9804896195,-36378.9677935352,-59319.2011540038,76905.8425955272,11858.4183050965,-3704.0294283559,75415.5674240469
16619871454,23,-2,0,-38706.9523881845,-40328.3466606289,62878.9095303428,-23882.2929515913,-60847.5247134494,-6992.8848734162,84138.9178042282,-72502.5234630600,-43808.7946598632,-11222.1207674375,-36223.8783298299,-57762.3200101147,82267.9762376422,64262.7295223192,-3511.9258309153,87545.7634053806
16619871454,23,-2,0,26186.1368357439,26509.0553417280,85168.3536262364,-23827.0881111056,-62605.7204012741,-6949.7503881788,96559.9947458111,-72361.4511860948,-43703.5319146479,-11045.5188157494,-36076.2476642772,-55939.2704982238,94917.4408485917,97721.3040659864,-3341.7484231496,100772.5973982755
16619871454,23,-2,0,43298.7491444391,38596.2871855799,82300.1232926484,-23918.8933836347,-64341.4058499763,-7044.3177278867,94519.4476532101,-75976.5834214622,-43818.0421094486,-11217.9715828209,-36233.4421395328,-74078.5808971420,90161.9155638877,87919.4942132972,-3540.4104091778,93996.7112299997
16619871454,23,-2,0,-8007.3787637258,-12623.7055967754,60850.0190912981,-23956.6984176636,-60809.5858347555,-7072.3642690636,85040.1669402067,-73028.8858599236,-43896.8401140740,-11359.2872137226,-36350.7265692091,-65008.8891945924,80271.7560645671,32323.8881441406,-3684.0257347790,79556.6970253733
16619871454,23,-2,0,-46792.1922438803,-47796.6964550983,55297.7165155374,-23895.8599335489,-59187.9360406779,-7004.0304837060,82493.8451937664,-71463.5116636521,-43832.8136933917,-11270.3048468564,-36260.9167989590,-53607.1123835642,80781.0228473945,47345.0315490307,-3548.8426230761,85271.7425461409
16619871454,23,-2,0,694.0819298711,-146.9249391370,81551.5179133137,-23838.7691000556,-62424.8962587884,-6956.3087767664,93107.4351076950,-71811.8119852088,-43726.8452217607,-11090.5636293879,-36109.2221226674,-52662.5340791992,92117.3252818186,95038.1322333785,-3368.0671513776,98636.4973825240
16619871454,23,-2,0,60276.8353970598,57568.8171275395,85975.5342980767,-23896.8820200820,-64284.4488611481,-7022.7930722070,97940.2982734057,-75920.9040408005,-43779.9450506960,-11163.5576426287,-36187.1562208183,-73898.4259779815,93551.7142217911,92290.5446137900,-3494.5625275489,97370.3146834318
16619883824,24,-2,0,10887.4847694130,6546.1722199555,75316.5832103922,-23944.8227455644,-63050.2793723971,-7064.1267383145,89712.5990233069,-74330.0020165944,-43866.3113627452,-11306.1995524841,-36306.8498544656,-68665.5254438230,84977.4911338717,62439.8138550933,-3638.3968716929,86696.0322977504
16619883824,24,-2,0,-48351.1783993198,-49943.8812426556,51285.3941527786,-23940.1138468939,-58256.8273766959,-7048.9657880731,81454.6995496935,-71008.0017653885,-43883.5651568402,-11340.8166499453,-36322.9842204528,-52299.7298630295,79356.4775741518,31292.6271676090,-3625.9493178431,83139.0738208934
16619883824,24,-2,0,-15225.4998730314,-16928.0770186784,77511.9642450652,-23869.3951929590,-62656.4475293289,-6984.2944794592,89936.1074462475,-72446.2478652539,-43771.0869674089,-11161.9515066481,-36168.7464955252,-55712.8418280457,88656.4794421660,89365.7588253689,-3446.4392866142,95115.2145927518
16619883824,24,-2,0,65515.2235624855,65129.6292501665,88826.3769929047,-23864.7958035599,-63765.5817655274,-6993.8947922525,100713.6570748652,-75036.7626865550,-43738.2341859869,-11103.4857234138,-36136.1857388270,-69793.2397530701,96923.7723777266,97037.7471938671,-3442.2779343008,101143.5174682261
16619883824,24,-2,0,23928.4206902471,19753.7690841734,80344.9812640476,-23935.6848052504,-63894.9365504521,-7059.6976966709,92847.6791159188,-75117.1303240706,-43846.6727000730,-11273.2129263971,-36277.2945188827,-70921.6476210360,88899.4926831138,83789.6075638352,-3599.9226143388,92580.7320153203
16619883824,24,-2,0,-38044.4091284785,-41051.8865845083,52550.2627406139,-23963.7313464272,-58449.9043898824,-7077.6937202721,81910.4649695905,-71403.8169430388,-43916.9411492255,-11392.5415291397,-36371.0831259939,-55351.3882262234,78810.4278438286,21405.1688969831,-3695.8405683940,81900.8403214035
16619883824,24,-2,0,-24827.4431377070,-26143.3552137145,73477.3263263331,-23876.9148295955,-62440.9819539883,-6990.8772034404,88072.3569884838,-73178.8527232664,-43795.8603981404,-11201.5816952004,-36209.2284228551,-59962.1787572185,86063.8231062240,80834.2321856013,-3505.0389145135,91926.6453049062
16619883824,24,-2,0,51631.4312827262,52579.7572377127,88850.4568649173,-23837.1994671655,-62935.1121219680,-6962.2952836033,100987.7466134988,-73403.3223942560,-43707.7054346582,-11054.8271038189,-36088.7925597016,-61889.9556356645,98418.2819077013,100072.6141354453,-3380.9405746163,102070.0267428090
16619912737,25,-2,0,36931.4177323872,32490.3909074657,82788.7779970577,-23930.4161925260,-64200.6255977349,-7054.7454440640,95119.9721622096,-75660.0772917039,-43835.3202389372,-11251.7126061109,-36258.0938932961,-73405.3300642318,91062.0574394553,89117.4648040000,-3580.7949949331,95146.4247351027
16619912737,25,-2,0,-17469.0771548201,-21479.4405183903,59983.7764190793,-23969.3041515721,-59858.0111047173,-7084.3007796469,84620.9776169595,-72554.7472178240,-43914.7022930101,-11392.6023676238,-36375.3904906692,-61549.0411060793,80326.0483277911,25008.6201434006,-3719.4702356242,82711.5374576257
16619912737,25,-2,0,-36361.6288255625,-37024.5371161732,68312.3823789307,-23883.5583920609,-61150.4151904629,-6990.5000048389,86501.6411733071,-72354.3452511502,-43807.1155177016,-11233.0838622750,-36228.0396821434,-56715.2410277133,84629.4341662515,68452.9922834166,-3534.4117346441,90113.2204412023
16619912737,25,-2,0,26385.9425852735,26991.0299805816,86231.9320055297,-23828.4752285434,-62370.8108464104,-6947.6697120221,98622.0421586983,-72059.4367832525,-43708.0948009565,-11055.1312962395,-36083.4266054027,-54510.4421956994,97244.3425182239,100188.0734105982,-3361.1193964917,102070.0267428090
16619912737,25,-2,0,54288.9414427345,50661.9213675710,86168.4774665981,-23914.5981866562,-64364.9016725414,-7038.4650657149,98254.2856899217,-76024.9865194239,-43807.7604056332,-11206.9354818025,-36225.1559379964,-75164.9372048879,93860.4695286732,92251.0604375995,-3547.9422135112,97711.7037531931
16619912737,25,-2,0,4929.3895046071,869.7713042975,71650.6265053953,-23951.2229540933,-61909.1562612511,-7065.7450419920,89179.9580948826,-73771.1031984263,-43887.7386768504,-11345.2943623762,-36340.9315732667,-66777.6342755626,84195.2785759121,45948.2529599379,-3687.9802362464,86595.1985941787
16619912737,25,-2,0,-45799.0648291918,-46586.8136892059,63529.5892856464,-23907.1150531101,-59946.5919375884,-7013.2414302010,84774.9476525570,-71545.0595677595,-43843.6672789577,-11288.3252058512,-36273.9970730436,-53211.5892306376,82982.1592026647,52640.8390757639,-3580.4786348157,88124.6902525193
16619912737,25,-2,0,2337.3658888999,1955.2028670849,82472.0771841502,-23845.5465071860,-62380.4841653846,-6961.7355695494,94975.4077562562,-71815.5839712239,-43738.1611798060,-11110.0441120014,-36122.0103720283,-52758.6102133131,94019.0146182762,97005.1377663817,-3395.1281091119,100402.3708870439
16619946106,26,-2,0,67672.7873954328,65865.7019017735,89584.8017035755,-23887.2087011078,-64184.8197595619,-7013.8011442548,101528.0045201342,-75791.2085603647,-43770.5029179614,-11149.3701081332,-36174.1367852178,-74119.1966691370,97221.2725650476,96380.7402362156,-3489.7076165166,101125.2780906885
16619946106,26,-2,0,20244.5166324363,16697.6938470328,80518.7481423760,-23934.6383833236,-63487.6959054850,-7053.9302083769,93331.5519154768,-74691.1270906025,-43859.7651418545,-11293.3504646390,-36294.5969837649,-69800.0293278973,88759.5520019531,72947.5934774495,-3631.4977875943,91912.0805718092
16619946106,26,-2,0,-46194.6609882993,-48035.0981389502,61150.7923890645,-23938.1426800086,-59351.7619107020,-7048.6494279557,83813.2128956717,-71352.6639455951,-43892.6665940637,-11355.2962091646,-36334.7382155838,-53078.5963043629,81490.0223735706,37118.5325741304,-3647.7173274593,85976.7389000622
16619946106,26,-2,0,-13680.8107613590,-14673.8773375634,79111.9555387979,-23865.8057223962,-62759.3132382701,-6979.3787299427,91886.2485514541,-72672.7495416129,-43777.9252130234,-11174.0705326837,-36179.6365841817,-57111.3117269969,90411.2316717897,90899.2536559643,-3463.7052484060,96630.3727042350
16619946106,26,-2,0,66962.2669071539,67254.7783387774,91348.3998487896,-23849.6348533185,-63515.7546143587,-6976.0691164069,102070.0267428090,-74667.8867896707,-43729.4612765776,-11085.6843829619,-36120.8909439206,-68549.7376408558,100006.9450756919,100386.0175025138,-3423.6126873744,102070.0267428090
16619946106,26,-2,0,29774.0621010153,26079.2314514576,83328.1598295219,-23931.0367450640,-63999.9437740341,-7048.9536203763,95781.5176707761,-75235.1083124658,-43846.3320045620,-11262.9798933690,-36273.5103651707,-71871.1051718270,91955.6409264353,89124.1692049494,-3588.4241408411,95985.9836481888
16619946106,26,-2,0,-32593.3782933751,-35815.8102814789,63275.8563037976,-23958.3167213410,-59756.1309792188,-7067.0469855520,84736.8749291980,-72013.8322555601,-43916.0529073574,-11390.3391760147,-36373.6626777204,-57270.3678598664,81299.0382042376,29159.7150884250,-3699.2718588981,84982.4798895691
16619946106,26,-2,0,-25642.0096015188,-26145.5332314458,76037.9694519340,-23871.6218814776,-62407.1557568205,-6978.4661526810,90138.1642196893,-73096.0758817799,-43793.8892312551,-11211.2915172651,-36213.0977504448,-59938.6951023503,88038.3847789542,82208.1233369701,-3512.4247064850,93753.2599519663
16620016038,27,-2,0,48325.5775652043,49682.7016303511,90251.2507939617,-23820.2620331879,-62647.6867876164,-6940.2230815665,102070.0267428090,-72948.8589179191,-43693.4813970722,-11044.7765862432,-36077.2697508103,-59743.2940590706,100754.2728468602,102070.0267428090,-3362.9080479247,102070.0267428090
16620016038,27,-2,0,43760.3185557206,39866.5947338950,86055.0745322083,-23918.5405204268,-64282.2221726295,-7039.6453323067,98230.2301533027,-75790.0891322570,-43824.3449764029,-11241.6134177479,-36251.1339707133,-74544.6158531575,94067.8922564139,92436.9341742668,-3569.6980554306,98083.0861956229
16620016038,27,-2,0,-10124.5215078272,-13957.6380317777,69818.2808731317,-23963.9138618796,-61014.6601970094,-7077.4381986388,88026.8498023660,-73211.8393493534,-43913.9843988975,-11392.9430631348,-36376.6437634420,-63656.6930466589,83361.4141449390,35081.2950950652,-3718.9226892672,86381.2539809409
16620016038,27,-2,0,-39419.1641863218,-39670.3541195346,72031.3537389852,-23894.5944930793,-61334.6584557559,-7002.0593168207,88255.6755088183,-72205.9480206976,-43826.5229941342,-11257.4679267082,-36250.0875487866,-55779.3869619703,86390.6596105850,69578.8084319593,-3546.2022328655,91980.7428849810
16620016038,27,-2,0,21103.7628789820,21965.6860188288,86895.2418301356,-23833.8046797519,-62225.9909188237,-6954.3862806684,99944.2814370538,-71848.7166096728,-43718.8145418575,-11075.0498159386,-36099.5488036931,-53301.3259947068,98784.4930789814,101739.1870661932,-3368.7485423997,102070.0267428090
16620016038,27,-2,0,59936.7482708586,56844.1334401587,89399.6093579303,-23913.8072863627,-64383.9806211598,-7039.6453323067,101313.7313790822,-76066.3931917124,-43810.1696096042,-11204.0152345650,-36225.6183104756,-75925.7346164392,96879.6523090467,95544.3814273938,-3539.3396518574,100711.4425540434
16620016038,27,-2,0,9441.1471511603,5736.8987042616,78151.2307007489,-23952.6222392279,-62636.4925065393,-7067.8987243296,92458.9333701227,-74231.6383554778,-43888.9797819264,-11341.2425193341,-36340.5908777556,-68227.7803829208,87448.1906445574,56320.6304520485,-3678.8909667197,90423.8860764856
16620016038,27,-2,0,-48269.3871412760,-49082.6151584373,68430.5185473847,-23923.0182328577,-60409.2564415839,-7031.2617891957,86426.2622914890,-71553.8324771688,-43871.0202614157,-11317.9170445246,-36304.1729611645,-52871.3074212872,84492.5232415997,53265.4191213823,-3603.6215941730,89819.8086000138
16620082502,28,-2,0,-2394.7487471169,-2637.9566712138,83167.9964362415,-23858.5659427865,-62423.5699798347,-6975.3998930816,96173.4878562304,-71947.4818047846,-43762.8981074471,-11139.5507767970,-36150.8234781050,-53376.0234855028,95178.5231193216,97902.3958978022,-3419.6216828164,101520.8499144024
16620082502,28,-2,0,70299.8539779901,69130.4774748212,92335.7354397904,-23884.3127892639,-64058.6042404175,-7010.5767045967,102070.0267428090,-75618.9504764423,-43770.5150856582,-11141.5584467728,-36169.5617312123,-73710.1552050401,100115.6999498954,99562.2279245102,-3475.1550511164,102070.0267428090
16620082502,28,-2,0,22163.8612969840,18900.1564812567,83715.1047561883,-23942.3162000189,-63746.7826739360,-7061.1213171992,96149.3958165210,-74903.3560585883,-43865.8854933564,-11291.5131424188,-36297.5659017897,-70551.3116005330,91818.9976911137,81125.9405492345,-3617.5536070352,95389.3162990822
16620082502,28,-2,0,-45381.8101697395,-47496.1665112685,67867.5800538713,-23953.4496426118,-60172.1810366857,-7064.3944276446,85861.8758420536,-71645.1023710377,-43908.9226370192,-11371.2237243059,-36354.0848535323,-54039.6375025293,83222.0088424386,39619.8581777194,-3659.3253102284,87929.5568985698
16620082502,28,-2,0,-17007.6172528100,-17701.9668720112,80439.4390944841,-23875.6737245196,-62852.2501066037,-6988.6991857091,93398.1213847951,-72925.3509276572,-43788.6206185308,-11186.9317882256,-36192.1936473030,-58476.5881490151,91709.7317736437,91341.4277585100,-3472.7215117518,97758.5615536582
16620082502,28,-2,0,64795.3461153498,65671.5419635698,93231.4604414112,-23847.7488603110,-63245.8507634323,-6973.4652292868,102070.0267428090,-74237.2598314100,-43721.7104537014,-11071.9835563392,-36108.7719178849,-66644.3736599577,102070.0267428090,102070.0267428090,-3402.5869072643,102070.0267428090
16620082502,28,-2,0,33431.9759584123,29783.6624138086,86084.2039984024,-23937.8506552848,-64097.8450626715,-7057.7752005729,98420.5085962199,-75380.9624942824,-43846.3320045620,-11261.6414467184,-36271.8068876155,-72821.2806167306,94592.8432004461,92857.8634781596,-3583.5570621119,98742.7822142723
16620082502,28,-2,0,-27824.7240637991,-31224.1838729799,70994.8119820324,-23971.6525170590,-60762.4116741730,-7083.0110037837,87449.2005633937,-72558.7017192915,-43925.4098662143,-11398.1873404655,-36382.0218854377,-59350.2287809023,83570.0049715747,34344.6870647980,-3710.4296368848,87489.2931244253
16620099842,29,-2,0,-29525.0136824433,-29586.8377500007,78036.1364565007,-23885.2010311320,-62345.8549002265,-6994.3693324286,91790.7199636971,-72875.9744139497,-43809.6585663376,-11220.1252651586,-36225.8129936248,-59044.8195906465,89732.9434123948,82435.2090627767,-3520.4918894786,95373.6321378775
16620099842,29,-2,0,43045.2838519204,44643.5108296138,91386.6672552977,-23834.6685862263,-62419.0557643133,-6956.6738076711,102070.0267428090,-72554.9419009732,-43710.5040049275,-11049.9356896961,-36087.0404113591,-57536.1468615699,102070.0267428090,102070.0267428090,-3361.4235889123,102070.0267428090
16620099842,29,-2,0,49566.3419456334,45961.5644202622,89189.5340722823,-23929.5279506579,-64368.7953355247,-7056.7531140398,101175.2873246308,-75929.8716333590,-43835.6974375387,-11233.9234333558,-36252.8617836622,-75628.7698077784,96907.7718564045,95439.2281914499,-3565.1838399093,100849.6554222552
16620099842,29,-2,0,-4240.1746534652,-7903.4544651610,77058.2551659313,-23968.7444375183,-61906.0169954708,-7086.2354434418,91296.4924541429,-73699.0460978408,-43917.1114969810,-11381.2985772753,-36374.7090996471,-65526.8558806482,86388.9317976362,43995.5688060953,-3712.1331144400,89710.7130302993
16620099842,29,-2,0,-42434.6966576483,-42443.1045361530,75216.5647425076,-23903.5620856378,-61473.3336964470,-7012.1098343964,89949.6744282051,-72035.1865634844,-43840.8200379012,-11265.2795880685,-36265.8082130818,-54784.0936972473,88108.6410604098,69848.1647365288,-3557.7858802409,93766.8756047112
16620099842,29,-2,0,16633.6065878664,17604.5279558531,87765.7310285457,-23841.2634779043,-62141.9364691708,-6959.8374088451,101262.1160091593,-71724.7642821375,-43728.7433824651,-11078.3594294745,-36106.1436953712,-52530.2347116433,100252.3310175202,102070.0267428090,-3372.3866837498,102070.0267428090
16620099842,29,-2,0,65467.9763957220,62950.7597800823,92582.3259836041,-23906.0321280928,-64361.3487050691,-7032.5759004526,102070.0267428090,-76041.9847918856,-43797.5760433924,-11179.4729900731,-36207.4884422094,-76316.6583799667,99951.8740798713,98841.5230739905,-3523.2052858701,102070.0267428090
16620099842,29,-2,0,14670.4947178466,11421.5736537592,83193.6094380538,-23944.8349132612,-63156.8075580820,-7061.0726464119,95791.8358776820,-74527.0213635515,-43876.1428617782,-11318.5010939721,-36323.3735867511,-69355.7623814980,90890.3834049804,66806.5812263043,-3662.1725512850,94203.0266973295
16620114771,30,-2,0,-49162.2770695371,-50142.7744149234,73313.3787793408,-23917.9686386761,-60891.1580742565,-7025.4091270239,88382.0978788087,-71578.7762556558,-43868.9639206526,-11319.5961866861,-36307.8841086955,-52941.8800628603,86274.8596399211,54859.8984484543,-3611.3237462619,91685.2381999391
16620114771,30,-2,0,-5440.4936096548,-5536.7522592211,84205.4994412433,-23857.5438562534,-62503.7429342010,-6972.6499935996,97546.2352440979,-72144.9513565242,-43766.0252055305,-11147.8491460303,-36160.3629524142,-54412.0541991891,96431.4916996641,98697.7860714211,-3435.2328378403,102070.0267428090
16620114771,30,-2,0,72507.8772496621,72018.8453466512,95016.2060437036,-23868.8111435115,-63861.8890858810,-6995.6469405950,102070.0267428090,-75332.9000918318,-43750.9250937733,-11115.9089418701,-36150.6896334399,-72691.6946455662,102070.0267428090,102070.0267428090,-3460.1522809337,102070.0267428090
16620114771,30,-2,0,26022.9558536515,22977.9775560134,86632.2735663982,-23926.3278463935,-63873.4727332564,-7045.8508576864,99031.5581629712,-75024.7775051844,-43846.5266877111,-11271.5094488419,-36278.8398163792,-71262.5134798339,94936.0939278213,88238.0080130314,-3604.4733329506,98754.2076815891
16620114771,30,-2,0,-42837.2040685513,-45347.2052399750,73658.2478103935,-23949.9818490173,-60918.6083982891,-7060.2330753312,88193.5107457499,-71923.4749389530,-43908.8617985351,-11379.2909072995,-36358.5747336599,-55402.2248635496,85194.9643791882,42582.5098386534,-3679.5723577418,89969.3982647551
16620114771,30,-2,0,-19737.4643704307,-19999.1063552144,82012.6127844191,-23867.5335353451,-62880.9415357122,-6979.0867052190,95086.0851265577,-73093.8248578676,-43789.1925002814,-11199.5618575278,-36201.6601154313,-59441.4621716807,93214.8393675511,91796.2806011452,-3498.4926936228,99115.4787679591
16620114771,30,-2,0,62139.4299236253,63537.8998225765,95120.6778886253,-23831.5049850523,-62947.8395328448,-6955.9194104681,102070.0267428090,-73759.0571785715,-43710.6621849862,-11061.5071693747,-36094.9980850813,-64284.8990659306,102070.0267428090,102070.0267428090,-3395.2254506864,102070.0267428090
16620114771,30,-2,0,38645.8827178302,35052.7253429250,89086.6805310379,-23928.5910380026,-64193.1424641888,-7049.9270361221,101251.4571067424,-75555.2160804838,-43844.4095084639,-11260.6315278821,-36267.4386844561,-74025.5175712971,97309.4518639234,95912.5881009529,-3587.4020543080,101451.4940425116
16620139976,31,3,0,-22220.4410872107,-25753.0154996345,77035.0513680900,-23970.0342133815,-61608.2612865166,-7082.1105942188,90402.1910730503,-72986.9924797622,-43928.8533244152,-11402.5312082313,-36386.9376349542,-61546.2790389005,86140.5769377831,40279.2865070388,-3724.2521404756,90120.6792393547
16620139976,31,3,0,-32766.2934329259,-32416.1801245426,80030.5193073555,-23877.6692267986,-62261.7396120895,-6988.2489809266,93545.0463239321,-72626.5487967762,-43810.8388329294,-11226.4889705970,-36228.4898869258,-57729.5158994801,91590.4883447788,82744.8039407396,-3530.4937362671,97234.6448638560
16620139976,31,3,0,38335.8376350848,40087.4384312314,92652.1077248837,-23823.2187835159,-62216.5001153018,-6947.3533519047,102070.0267428090,-72215.1224641021,-43711.4530852797,-11052.5152414225,-36087.0282436623,-55539.1357882014,102070.0267428090,102070.0267428090,-3366.1811583701,102070.0267428090
16620139976,31,3,0,55605.9121083657,52302.2850793623,92382.5324017714,-23917.2264091700,-64411.9541561557,-7044.5975849137,102070.0267428090,-76025.1203640890,-43827.7884346038,-11223.7634065086,-36245.3786501161,-76598.6569215351,99859.0102177186,98532.3662331132,-3566.4371126821,102070.0267428090
16620139976,31,3,0,1898.3918906186,-1559.6553787647,82307.7524385564,-23953.0359409199,-62589.0141535362,-7070.2592575133,94679.4528664318,-74029.4842404614,-43903.8608751408,-11359.0073566956,-36359.5116463153,-67197.4198159541,89673.5893872925,53379.3087636450,-3705.5747258524,93109.8929824532
16620139976,31,3,0,-45168.6199537047,-45134.4773964195,77864.8517883241,-23896.6630015392,-61599.1111785058,-7007.0237371244,91720.6583653906,-71876.6414738815,-43844.1539868307,-11279.1142593562,-36270.9673165347,-54036.7294229886,89873.9426831791,70214.0108769042,-3576.1104316563,95551.8645609399
16620139976,31,3,0,11981.8474216684,12985.2808755659,88802.1511085302,-23838.4040691509,-62122.4438188605,-6959.9834212069,102070.0267428090,-71709.4208164438,-43739.4022848820,-11100.2856191494,-36119.9783666588,-52214.8723453863,101569.8005587211,102070.0267428090,-3393.3151222852,102070.0267428090
16620139976,31,3,0,70587.5835047622,68639.4257341378,95674.7948019421,-23896.5169891773,-64293.7449815208,-7024.8859160605,102070.0267428090,-75949.6928114835,-43791.5408657683,-11169.3494663164,-36197.6447754797,-76249.2006687803,102070.0267428090,102070.0267428090,-3513.8848301038,102070.0267428090
16620149996,32,3,0,20027.3719149341,17110.5681356289,86920.4046271655,-23939.5297974464,-63513.0655533609,-7059.4543427345,99084.7796688748,-74743.6672054840,-43872.9062544233,-11309.6308429881,-36316.5596765303,-70285.0823940470,94354.1008210832,76492.8953007501,-3652.8520955186,97851.3037388427
16620149996,32,3,0,-49507.2677775580,-50812.8008081755,76581.4031274402,-23935.1372588933,-61314.0342096410,-7046.4227394371,90381.0922867593,-71666.8947160476,-43889.2839743470,-11347.2290261710,-36331.5989498035,-53425.3756638167,88083.5025987736,56017.9468258810,-3641.3171189304,93451.2090460336
16620149996,32,3,0,-8515.5747892328,-8450.7574682570,85583.2355848082,-23865.2581760392,-62615.9047635149,-6981.6054184613,98991.0640679445,-72397.6257487494,-43778.3389147154,-11169.9091803703,-36180.7195091990,-55591.3717106622,97720.6591780548,99406.3962312988,-3458.9720143418,102070.0267428090
16620149996,32,3,0,73981.7381981282,74168.5123443604,97645.5966563540,-23861.8998917160,-63652.8237190692,-6989.3197382471,102070.0267428090,-75000.7706393528,-43749.0391007657,-11105.5420641769,-36144.8491389649,-71098.9187960495,102070.0267428090,102070.0267428090,-3446.6096343697,102070.0267428090
16620149996,32,3,0,30268.2166043886,27168.4228325632,89462.6623628668,-23933.1052535239,-63994.9063475494,-7054.4655870371,101832.9513379108,-75174.7808716177,-43859.8989865195,-11275.7316396394,-36289.5717249770,-72191.4319583878,97910.4752484927,94091.7896129742,-3603.1105509064,101874.7352088008
16620149996,32,3,0,-39400.3529270335,-42298.7591487424,77360.7684443433,-23958.0855351014,-61552.1317010724,-7069.2615063738,90625.5291482354,-72226.9981362013,-43925.1786799746,-11395.1697516534,-36382.5085933106,-57126.2779940891,87291.9817527445,45004.2222019300,-3700.1722684630,91982.4585302331
16620149996,32,3,0,-22982.2849206887,-22785.3020768221,83627.5581775472,-23874.1162593263,-62839.5713665142,-6986.9957081539,96828.1099453047,-73170.5543540331,-43805.1200154227,-11212.2405976173,-36224.1460191601,-59885.4614287499,94817.6900700372,92118.4812130167,-3512.8627435706,100595.0707016288
16620149996,32,3,0,58167.6016558933,59941.7735296465,96801.2315030228,-23830.4828985192,-62706.7731233886,-6955.1285101746,102070.0267428090,-73324.0985202418,-43716.5878533389,-11058.8059406800,-36100.8264118595,-61930.2063767548,102070.0267428090,102070.0267428090,-3384.5178774823,102070.0267428090
16620183937,33,3,0,42290.4364441155,38614.1128614255,91890.2638914056,-23927.3134298362,-64299.9018361132,-7049.7688560634,102070.0267428090,-75724.0185385084,-43846.7822093444,-11255.4724244292,-36273.0114896010,-75191.1464238445,99833.0200173048,98475.9324552484,-3585.7959183274,102070.0267428090
16620183937,33,3,0,-17645.6547711146,-21195.7506669635,80808.2176497938,-23961.6141671800,-62239.3023791480,-7074.7004668536,93305.2940257329,-73351.8652043918,-43923.8645687177,-11394.8412238392,-36387.3513366462,-63609.1173520812,88764.3582421982,44661.2026607944,-3723.9114449646,92653.0324698422
16620183937,33,3,0,-37786.3079434703,-37357.5426428235,81489.7911873309,-23879.5552198061,-62198.7109425467,-6986.5211679778,95017.3619749017,-72418.5906903753,-43814.0876079812,-11239.2893876547,-36239.8545157585,-56712.8074883487,93126.8182487339,81938.1099767722,-3539.7411858525,98804.0465677759
16620183937,33,3,0,30671.0038723185,32459.4119513545,93553.5758794050,-23825.3116273694,-62093.1318372140,-6944.8103032687,102070.0267428090,-71974.5792656093,-43709.2750675483,-11063.7216901965,-36093.5257937658,-54045.4414939138,102070.0267428090,102070.0267428090,-3369.4664365123,102070.0267428090
16620183937,33,3,0,59483.5015642040,56342.8364987503,95138.9902723439,-23909.0618846018,-64426.8109139765,-7036.2870479836,102070.0267428090,-76075.2512749995,-43808.7581567727,-11215.7327266055,-36233.2839594741,-77138.6228034469,102070.0267428090,101239.0582236798,-3556.7151229205,102070.0267428090
16620183937,33,3,0,5094.7241690372,1762.5395555904,85631.7968628286,-23944.8592486549,-63052.6764086712,-7063.0559809941,97714.7943481861,-74328.4202160075,-43886.7652611046,-11353.2763714920,-36348.6945638397,-68623.4252128156,92678.1952668721,60539.3899591053,-3697.0695057732,96125.7174785035
16620183937,33,3,0,-50141.4359682729,-50398.1743712370,79316.1538268805,-23904.3651536281,-61699.7015281410,-7013.2657655946,92972.8360454396,-71804.3653547532,-43848.6316992615,-11295.8083393973,-36286.0917636857,-53801.0654709219,91057.3607084816,67855.2298415960,-3591.5512389246,96699.3635452211
16620183937,33,3,0,2033.6236731088,2855.0040471415,89383.1099610384,-23844.8042776798,-62181.8100116596,-6959.9469181165,102070.0267428090,-71788.8758766976,-43741.9331658211,-11117.7097609999,-36133.2776592863,-52605.2485625568,102070.0267428090,102070.0267428090,-3409.9483638422,102070.0267428090
16620210546,34,3,0,71629.7345699503,70125.4422117300,97887.8676677956,-23883.7652429069,-64180.0013516200,-7009.0192394034,102070.0267428090,-75814.5340351743,-43772.8512834482,-11153.7383112926,-36183.0678746858,-75722.8382719166,102070.0267428090,102070.0267428090,-3501.2669284984,102070.0267428090
16620210546,34,3,0,16472.0317417546,13379.2830663896,89078.4308325920,-23935.9159914900,-63715.8402209152,-7053.2731527484,101259.1105880440,-74915.2317306875,-43865.6543071168,-11302.4397341658,-36308.8818598350,-71106.2437495369,96705.3135489675,82442.2541592372,-3645.7339928772,100296.3172415351
16620210546,34,3,0,-53053.0563087315,-54667.6853417423,77846.9044355103,-23937.0962580818,-61517.8066283349,-7046.3862363466,91359.4724528984,-71779.6405948090,-43898.0690514531,-11364.4584848723,-36350.0330104902,-54241.9254622107,88830.9642146070,49439.5910478288,-3665.4091586399,94068.0382687758
16620210546,34,3,0,-20703.0684549057,-20967.1683144477,86035.9347451058,-23860.6831220337,-62747.1698768408,-6974.1587880057,99353.8074456300,-72672.0559828940,-43784.2037445840,-11181.6145047140,-36193.8849571614,-57141.4754474209,97870.4800290356,98517.6433199575,-3481.7499427944,102070.0267428090
16620210546,34,3,0,68367.6967286878,69205.6373380965,98694.9388303645,-23849.5375117439,-63427.5023093019,-6975.6189116244,102070.0267428090,-74638.9398389289,-43739.0980924614,-11093.5325474127,-36132.4259205087,-69208.9347839355,102070.0267428090,102070.0267428090,-3439.2846808823,102070.0267428090
16620210546,34,3,0,23379.3290357182,19643.3350678084,90832.9640436729,-23932.6428810446,-64082.7084478237,-7048.4425771097,102070.0267428090,-75302.6146944395,-43850.9070585674,-11273.9429882064,-36283.5608827465,-73048.9868950751,99285.0964616709,96805.4293584267,-3605.2764009409,102070.0267428090
16620210546,34,3,0,-41071.3548994250,-43927.3080269186,78944.1629996096,-23957.3554732920,-61853.6593960417,-7066.2925883490,91874.5067240199,-72518.8160091059,-43922.2219296467,-11398.7835576098,-36383.2021520296,-58908.7117339850,88208.6230252040,37676.6161566115,-3714.1407844158,92706.9110313742
16620210546,34,3,0,-35532.7896533773,-35550.9438570371,83836.3680227257,-23870.7701427000,-62694.4229111133,-6975.9839425291,97136.7314075218,-73069.7936566423,-43797.8315650257,-11215.3068572167,-36219.6074682451,-59883.4294233805,95045.4085160786,89060.0332749957,-3525.4319743887,100720.0086126068
16620226188,35,3,0,45230.0789903574,47431.0693332657,96733.7981272300,-23825.3481304599,-62495.1160371536,-6945.1509987798,102070.0267428090,-72908.3891582860,-43707.5229192058,-11055.9221965330,-36090.6663850124,-59669.9958534092,102070.0267428090,102070.0267428090,-3384.7855668124,102070.0267428090
16620226188,35,3,0,37482.6387338601,33350.6349051509,93197.4760641848,-23922.9938974640,-64367.6880751139,-7045.4128206008,102070.0267428090,-75858.6541038543,-43835.4540836023,-11247.7216015530,-36262.1822394286,-75993.1679922319,100922.3574107723,99322.9501664870,-3587.7062467286,102070.0267428090
16620226188,35,3,0,-21727.8805521212,-25072.0746823322,82453.2902602556,-23957.5379887444,-62521.3617592006,-7071.7558842225,94781.1139733875,-73676.4750202342,-43912.2565859487,-11386.2021590949,-36377.3981606450,-65393.5587619529,89993.2834536185,40323.0902156013,-3728.0727972780,93693.1271942673
16620226188,35,3,0,-51174.9479687168,-51215.9774424037,81077.9998237521,-23884.1181061147,-62098.3031083638,-6992.6050163892,94635.0772761185,-72287.0335523257,-43823.2620513857,-11255.7644491530,-36252.4724173639,-56059.0493057488,92742.3920353099,74341.4274839112,-3560.0004010627,98416.8461194762
16620226188,35,3,0,9543.0394443557,11243.5602492396,92404.9331316224,-23828.1710361228,-62056.0933680850,-6947.3533519047,102070.0267428090,-71834.7237583264,-43716.5026794612,-11077.6902061492,-36099.5731390868,-53149.7529953834,102070.0267428090,102070.0267428090,-3381.3907793988,102070.0267428090
16620226188,35,3,0,53613.5125920930,50236.9645560298,95803.6020405098,-23901.9924527476,-64413.8036460728,-7026.5772259189,102070.0267428090,-76092.8335969086,-43799.9487442729,-11198.5397709947,-36218.6705555897,-77223.4073149091,102070.0267428090,101653.1736173518,-3546.1900651687,102070.0267428090
16620226188,35,3,0,-7792.1687100184,-11283.5067979093,86452.4593427487,-23938.5320463069,-63225.2873558015,-7054.5750963085,98543.5118434030,-74520.7063289004,-43880.8760958423,-11336.2659313335,-36334.6408740092,-69550.8835677507,93523.4729974650,60164.3815430222,-3686.0820755420,96916.8246228407
16620226188,35,3,0,-60773.7519676119,-61342.0199123338,78351.7786797846,-23904.6693460487,-61580.3607577016,-7015.6019633846,92081.8077747924,-71742.5291194990,-43862.3811966714,-11314.7047725633,-36302.4329805189,-53664.4222356002,90044.0835878543,52633.9034885748,-3613.3314162377,95602.5430182075
16620263817,36,3,0,-22620.7583126855,-22596.4350867364,87902.4229346546,-23848.1017235188,-62323.0526363803,-6966.4323005231,101510.6412167679,-71969.1403051295,-43760.3915619015,-11143.6634583232,-36157.2358543307,-53499.9758130382,100490.3676704674,102070.0267428090,-3436.4252721289,102070.0267428090
16620263817,36,3,0,63215.6383722209,62089.7735528909,97777.4093160370,-23876.8296557178,-64043.3581162983,-7003.7384589822,102070.0267428090,-75613.5115159625,-43771.7926938246,-11143.5661167486,-36176.7650077315,-74531.4504051951,102070.0267428090,102070.0267428090,-3493.6256148936,102070.0267428090
16620263817,36,3,0,-684.4816170778,-4510.8815723820,89034.2377577310,-23932.6428810446,-63840.2792563234,-7053.0663019024,101318.2455946035,-75006.0270843803,-43864.0116680457,-11294.4698927467,-36301.3135524111,-71420.7300416226,97000.0638368065,85147.2183368549,-3637.1557666170,100703.3510356562
16620263817,36,3,0,-59423.4904834733,-60907.3776141215,77136.7246427425,-23940.6613932509,-61463.5752035950,-7052.2267308217,90714.5966889793,-71891.2670454626,-43907.7910412146,-11377.6361005316,-36358.0028519092,-55100.1374545264,87918.2409405245,31505.8782221278,-3683.5998653902,92952.9661965277
16620263817,36,3,0,-41532.9486461001,-42691.7392530330,84768.7056240869,-23863.6885431490,-62884.3606585195,-6978.3809788032,97963.5020712470,-72977.7085270863,-43791.8937289761,-11201.9467261051,-36203.4731022579,-58777.1667636322,96224.0446365297,93626.5455572522,-3500.0014880288,102070.0267428090
16620263817,36,3,0,53730.6510094075,55257.5509483248,97609.1057335820,-23830.9331033016,-63164.7165610169,-6956.3209444632,102070.0267428090,-74204.9910994355,-43717.8654615053,-11081.4743598611,-36113.9918598220,-66785.7988001308,102070.0267428090,102070.0267428090,-3420.4977569877,102070.0267428090
16620263817,36,3,0,9322.4269332589,4564.7723016108,90555.6987361685,-23913.5639324262,-64132.5229986169,-7036.4452280423,102070.0267428090,-75432.6995411736,-43841.9029629184,-11270.5238653992,-36275.7127182957,-73605.0263044899,98903.5904954844,96477.4369228675,-3601.2245578989,102070.0267428090
16620263817,36,3,0,-47096.6766891776,-49636.2088607907,78657.3338824024,-23946.3437076673,-61874.3809837312,-7058.8581255902,91639.8161876990,-72820.8060765545,-43919.9952411281,-11407.2766099922,-36387.4486782208,-60606.5799809615,87616.3360469536,22003.6005621290,-3726.6491767497,91824.5826639554
16620286521,37,3,0,-53678.2204037974,-54438.5554428694,82207.5757906131,-23860.7804636083,-62534.3811948012,-6970.1799511446,95565.3463690198,-72894.1894560936,-43801.1898493488,-11233.7895886907,-36231.6413204030,-59283.7444854618,93474.5953593273,79669.2968917728,-3539.0232917400,99088.2109593788
16620286521,37,3,0,22729.3793422239,25176.9845643396,94686.7899876160,-23813.6793092067,-62317.8935329274,-6935.9278845880,102070.0267428090,-72526.7615151313,-43705.6490938951,-11063.1376407490,-36092.1873471153,-57455.5967086020,102070.0267428090,102070.0267428090,-3378.9937431246,102070.0267428090
16620286521,37,3,0,27042.7670274727,22087.7158502660,92845.6349428526,-23907.5409224989,-64381.4132371301,-7031.8458386432,102070.0267428090,-75951.9316676990,-43822.7388404223,-11239.3867292293,-36250.6472628404,-76385.6978917400,100410.7300947612,98089.0605347630,-3579.3835421017,102070.0267428090
16620286521,37,3,0,-33022.3139417775,-36273.3278497184,82314.3351625376,-23946.2220306990,-62540.5502170904,-7060.5981062358,94746.0223357501,-73892.8531728366,-43904.7126139184,-11382.2719930211,-36368.4670711770,-66566.6585803496,89788.9513208709,33742.9336184194,-3725.8096056690,93267.2213023739
16620286521,37,3,0,-63617.8172553096,-64012.6346818204,79166.7710129853,-23881.5142189946,-61851.5787198850,-6988.9303719487,92911.5351888456,-72083.5166552651,-43830.3923217239,-11270.8523932134,-36257.5220115454,-55094.9053448926,91018.5579233132,58451.4983581662,-3571.3528621985,96696.6014780423
16620286521,37,3,0,-15324.6057636543,-14177.6786611238,90189.2077078615,-23821.4301320829,-62069.3804930156,-6939.2618335175,102070.0267428090,-71735.7030415813,-43722.7690433250,-11088.6167978962,-36104.6105655715,-52488.4751761470,102070.0267428090,102070.0267428090,-3388.6427267052,102070.0267428090
16620286521,37,3,0,45962.7325191572,42530.8823010337,95419.1879947826,-23886.4543039047,-64357.3698682080,-7010.4793630221,102070.0267428090,-76046.0122995339,-43790.5066115383,-11182.5149142789,-36204.1179901895,-76879.0371594262,102070.0267428090,100948.0799218560,-3532.0877045509,102070.0267428090
16620286521,37,3,0,-22450.6782464944,-26199.4482960682,86245.0487827049,-23925.0380705303,-63342.8516425047,-7041.3123067715,98426.7992954774,-74641.4342167776,-43870.4483796650,-11318.6714417276,-36319.5894330392,-70043.1520781165,93518.3260617089,62748.4353173104,-3670.7751129388,96889.7636651065
16620321260,38,3,0,-67615.7695681205,-68202.7879336465,76619.0499814104,-23909.4877539906,-61360.0402713286,-7016.3320251940,90605.2090945411,-71669.6446155296,-43872.5168881249,-11326.4709353911,-36311.7534362852,-53405.6883303572,88425.5365564666,33703.5832868940,-3627.5067830364,93858.2428401546
16620321260,38,3,0,-43910.4435991220,-44877.5564780031,85957.4774359915,-23845.1328054940,-62502.8546923329,-6958.4381237104,99426.9353035359,-72207.2377965608,-43763.7011754374,-11152.2538522802,-36161.8230760329,-54761.3279364916,98248.9319033196,98112.2521649075,-3449.9922540865,102070.0267428090
16620321260,38,3,0,53601.1867152114,53048.5177578165,96943.8125743940,-23855.5605216713,-63837.1521582399,-6980.4251518695,102070.0267428090,-75303.0040607378,-43747.3356232105,-11117.6732579094,-36147.3921876009,-72837.3054734464,102070.0267428090,102070.0267428090,-3468.5966625288,102070.0267428090
16620321260,38,3,0,-13468.4479487081,-17941.1229530661,88474.0248283060,-23919.2827499330,-63903.8189691328,-7036.4938988296,100853.0137065784,-75054.0529837404,-43847.6339481220,-11276.7050553852,-36279.3995304330,-71610.9598137525,96775.0709548535,87762.3362411321,-3615.9718064483,100619.0897351573
16620321260,38,3,0,-62774.1943314845,-64179.3686313852,76078.0255098751,-23940.6735609478,-61344.2344331556,-7049.3308189778,89867.5668100439,-72018.1031171450,-43905.0411417327,-11385.6546127379,-36358.1975350584,-56005.4749366374,86780.1840889779,15041.4877939781,-3688.0775778210,91553.9000804322
16620321260,38,3,0,-55503.1680763927,-57230.2022926538,83305.6374227027,-23860.9143082734,-62913.6604724691,-6970.5206466556,96432.0027429306,-73153.3857338159,-43786.6372839486,-11203.9543960809,-36199.3604207317,-59817.8333698080,94477.0067266917,86015.1158158417,-3503.8464802248,100357.7154397037
16620321260,38,3,0,39522.9059694342,41601.6352946656,96299.5330276192,-23822.5252247970,-62895.8104612299,-6946.3677684621,102070.0267428090,-73696.7950739285,-43702.4489896307,-11061.6653494334,-36090.3135218045,-64076.0040468743,102070.0267428090,102070.0267428090,-3396.8072512734,102070.0267428090
16620321260,38,3,0,3429.5626911208,-1997.2787626986,90395.6570198564,-23916.2651611209,-64201.4895042093,-7035.1189490886,102070.0267428090,-75559.0732403766,-43832.5460040616,-11258.1249823366,-36256.7797820392,-74302.3570094127,98550.9706415555,95408.4439184879,-3588.3146315697,102070.0267428090
16620378521,39,3,0,-50020.8297573639,-52575.4985438247,78559.1892398285,-23948.0471852225,-61886.1228111653,-7060.5737708422,91648.3822462624,-73078.5300629612,-43912.5121075819,-11401.1440907935,-36373.2611437252,-62179.7658385934,87315.0030351335,14734.7766601622,-3725.1768854342,91238.3917018133
16620378521,39,3,0,-62099.0088347795,-63048.6489010228,80845.2682866197,-23863.7737170268,-62309.7290083592,-6971.4575593110,94351.5334370535,-72639.9210955846,-43799.6202164587,-11231.7210802308,-36223.2091065047,-57966.6399751656,92347.8301304324,69369.6213881793,-3535.8718582628,97991.0619045510
16620378521,39,3,0,6444.6084545744,8713.3607010897,93182.6558094544,-23807.9361563063,-62172.9032575852,-6926.7169380930,102070.0267428090,-72180.1160003425,-43698.3484758013,-11056.1777181662,-36079.0584022433,-55476.2166279299,102070.0267428090,102070.0267428090,-3369.7097904487,102070.0267428090
16620378521,39,3,0,26474.7911074746,21338.4777506966,93140.3852306915,-23902.4791606205,-64399.5552730931,-7024.4965497622,102070.0267428090,-76011.2735251045,-43813.6130678051,-11225.4912194575,-36234.7684184865,-76717.4988164048,100569.2508489705,97802.7667962160,-3567.7147208485,102070.0267428090
16620378521,39,3,0,-35828.7810462922,-39357.8633297278,82994.1930548226,-23939.5054620528,-62692.7194335581,-7052.9811280247,95427.9609041919,-74082.2555415825,-43892.5935878828,-11364.1056216644,-36352.8559161531,-67559.9320074000,90393.2843189759,37272.7946344517,-3709.6630719849,93758.9057632921
16620378521,39,3,0,-67696.0276963646,-68254.6344898090,78107.4269921863,-23888.2307876409,-61659.2804392952,-6993.7244444970,92027.4546730843,-71898.4946573755,-43838.3621631429,-11284.2855305059,-36269.4220190382,-54339.5955646084,90118.2335322933,46929.0910008353,-3582.6079817598,95768.3643905105
16620378521,39,3,0,-29183.7097865598,-29006.2682637909,88764.5650930442,-23829.8623459812,-62124.9625321028,-6943.8977260070,102070.0267428090,-71736.7981342954,-43729.7046305141,-11103.2423694774,-36118.4452368592,-52581.4242121774,101458.0524310991,102070.0267428090,-3400.1655355966,102070.0267428090
16620378521,39,3,0,45876.4148778953,42693.4305628914,95726.0816440508,-23885.9067575477,-64268.1441474054,-7008.8732270415,102070.0267428090,-75920.0401343260,-43777.7061944806,-11170.2255404877,-36191.9381256697,-76202.6470607357,102070.0267428090,101370.8465479691,-3519.8104984565,102070.0267428090
16620397563,40,3,0,-24561.7493098812,-28968.2198758255,86893.4653463994,-23924.4661887796,-63514.2336522559,-7039.0369474656,99110.4048383839,-74740.6617843687,-43854.4843614333,-11305.9318631540,-36303.4915701425,-70358.1007426815,94384.4470569596,69444.0876927357,-3652.2802137679,97839.7200914672
16620397563,40,3,0,-68649.1963946866,-69515.9257747784,76062.4995287290,-23918.6256943046,-61292.5095539613,-7025.0319284224,90133.3579794442,-71685.4261183089,-43875.8265016608,-11344.3817851145,-36321.8526246483,-53790.6499224414,87766.8504566534,22669.3925968868,-3642.9962610920,93051.9504101824
16620397563,40,3,0,-52194.3819439365,-54263.6934718269,85011.7066973378,-23851.8128710498,-62658.8323979062,-6963.0253454127,98356.0076353615,-72471.6296808265,-43767.7530184794,-11170.0795281258,-36173.5649034671,-56238.5106661904,96988.5531956120,93997.9888381661,-3465.7372537754,102070.0267428090
16620397563,40,3,0,50333.1988702024,50251.8334815474,96982.6761980465,-23847.5785125554,-63605.6495584866,-6971.3845531300,102070.0267428090,-74928.2876693785,-43732.5397038738,-11104.0697728613,-36133.0464730467,-70828.2727156168,102070.0267428090,102070.0267428090,-3450.9778375292,102070.0267428090
16620397563,40,3,0,-12370.1064595916,-17818.0588673989,88913.1570066460,-23918.9055513315,-63968.5997870182,-7036.3600541645,101297.6700192760,-75142.5729781273,-43842.7668693928,-11272.2273429544,-36273.4008558993,-72103.6298581134,97398.0448644913,90938.2389565850,-3603.9501219872,101389.1345962940
16620397563,40,3,0,-61185.7623497336,-63098.1227563049,76412.3573154791,-23942.6203924394,-61450.6409418722,-7052.7377740882,90100.3105148731,-72237.4258523785,-43911.2101640219,-11394.9020623233,-36372.0078709524,-57461.9360786468,86696.1418070218,8789.1289492062,-3704.2241115051,91245.0595996723
16620397563,40,3,0,-59230.7785011915,-61326.2749126449,82736.5907453841,-23863.3235122443,-62823.1206404096,-6972.3944719663,95919.6818682006,-73204.7820851961,-43797.0041616418,-11218.3487814224,-36219.1937665531,-60331.4926911885,93820.2917937639,80476.1003650116,-3522.4508886671,99596.6990096096
16620397563,40,3,0,30509.8305602018,32501.0376421858,95702.3181321556,-23824.9709318584,-62674.7720807443,-6945.8688928923,102070.0267428090,-73248.2085951571,-43713.0957243508,-11063.8920379520,-36098.2833632235,-61671.8496701133,102070.0267428090,102070.0267428090,-3394.5927304517,102070.0267428090
16620436257,41,3,0,6392.1170104802,195.5348879447,91012.4375718113,-23923.3467606719,-64281.2974276710,-7045.9238638674,102070.0267428090,-75705.3532915820,-43843.1927387816,-11261.3615896915,-36272.0624092488,-75063.6654642306,98948.5866383356,95338.5526679369,-3596.0776221427,102070.0267428090
16620436257,41,3,0,-48298.1637442622,-51458.3214600263,79559.4469248553,-23961.4194840309,-62084.9186418585,-7074.6031252791,92507.9691883191,-73364.4466029067,-43923.8524010209,-11402.6407175027,-36388.5802740253,-63772.4200111419,87910.4657822546,15724.6309644053,-3734.3878319291,91628.3907203823
16620436257,41,3,0,-65236.8753299639,-66475.4495249648,80114.4034092528,-23879.7012321680,-62151.7314651133,-6989.0033781297,93753.8196660201,-72445.8828343492,-43821.5707415273,-11250.9703766047,-36245.0866253923,-56955.5408722696,91794.8569806170,61004.6340148273,-3557.1896630966,97464.9185262302
16620436257,41,3,0,-6053.9767157707,-4684.5632768327,91968.0519771947,-23824.9465964648,-62120.7160059116,-6943.5326951023,102070.0267428090,-71974.4332532475,-43715.1277297202,-11082.4599433038,-36098.4172078886,-54226.2899717932,102070.0267428090,102070.0267428090,-3387.5232985975,102070.0267428090
16620436257,41,3,0,28910.7275083371,23459.7940148083,93670.2154211497,-23907.2975685624,-64412.2461808795,-7032.2108695479,102070.0267428090,-76050.3196642093,-43814.1727818589,-11225.3208717020,-36234.2330398263,-76900.0994426267,101009.2956045722,97952.3199578668,-3565.5123677235,102070.0267428090
16620436257,41,3,0,-35822.3199992792,-40120.8630944040,83976.0166791627,-23943.7641559408,-62911.2391008013,-7060.0383921820,96373.7316428455,-74278.7151744857,-43892.1798861908,-11360.4553126176,-36349.9965073997,-68474.7359576392,91325.4880756720,43734.1458398544,-3703.9929252654,94636.3305488913
16620436257,41,3,0,-70065.5163048770,-70901.1328841926,77249.2880060515,-23904.3164828408,-61529.3294372262,-7014.4460321864,91312.8945094602,-71795.6776192216,-43860.3978620893,-11313.6826860302,-36296.9453492517,-53838.5419771365,89331.0808894235,35634.4994311203,-3607.1258908580,94913.8392103321
16620436257,41,3,0,-40756.5765826155,-41845.9626468703,87465.7607987697,-23844.2932344132,-62243.5489053392,-6961.9667557891,101084.3094554857,-71842.0365441170,-43756.3397188595,-11136.7278711341,-36147.2583429359,-52957.8075780015,100086.8746761218,100157.8245162964,-3426.0462267390,102070.0267428090
16620461455,42,3,0,46735.8923106806,43875.9846817195,96095.9796274682,-23877.9369161287,-64134.7618548323,-7004.2738376424,102070.0267428090,-75743.7545427553,-43776.3555801332,-11158.1551852393,-36185.8299418646,-75259.5167122926,102070.0267428090,102070.0267428090,-3503.9073187090,102070.0267428090
16620461455,42,3,0,-24714.1740479822,-29942.3656834703,87498.9421080059,-23924.1863317527,-63676.4290509057,-7042.5290764538,99767.2779513704,-74857.1918168421,-43857.1369193407,-11297.6091585271,-36299.9507703670,-70809.2181023921,95253.3666224795,75961.1547818908,-3639.1512688960,98819.8280705552
16620461455,42,3,0,-68699.4489825653,-69868.4117840422,75649.7712524948,-23933.9204892110,-61251.8694465726,-7043.9405292852,89804.5746435915,-71758.5539762148,-43899.7481936147,-11368.3886509461,-36348.3173652382,-54337.1133544566,87213.9259776253,12687.5251666117,-3666.9544561364,92323.8719353880
16620461455,42,3,0,-57415.7109984164,-60316.4412502185,84260.1080645847,-23858.6511166643,-62792.4337090221,-6971.8104225188,97488.8767212745,-72747.7877279200,-43787.7445443595,-11190.8862896930,-36197.0120552449,-57647.8949891918,95910.7872818231,89141.9340423109,-3486.7873692791,102028.6444059142
16620461455,42,3,0,45805.8787394127,46122.2996952933,96847.9067880356,-23841.0687947552,-63377.7120939025,-6966.5053067040,102070.0267428090,-74545.1147287272,-43734.2431814290,-11094.6154724299,-36128.1428912270,-68694.5088976552,102070.0267428090,102070.0267428090,-3433.3346771359,102070.0267428090
16620461455,42,3,0,-11488.4959862854,-17805.2219472507,89226.2561812939,-23923.1277421291,-64053.0922737567,-7043.4659891091,101533.6746668537,-75279.9219398647,-43850.3473445135,-11274.7460561968,-36278.7059717141,-72820.4167102561,97708.8565121365,92394.6879308975,-3600.8838623878,101809.5893600108
16620461455,42,3,0,-59842.0105833952,-62234.5691450839,76686.7997173206,-23955.5059833749,-61559.5904992248,-7066.3655945299,90362.6825614662,-72511.3085401661,-43922.4531158863,-11403.7358102168,-36380.5982649094,-58917.1317801865,86639.6471906729,4055.7367050230,-3713.8365919952,90953.4120745232
16620461455,42,3,0,-62502.0759597363,-64814.2790516063,82029.2460259760,-23863.3600153348,-62655.1699211625,-6973.1975399567,95331.7752608065,-73066.1433475955,-43796.9554908545,-11219.7724019507,-36218.1595123232,-60003.9382927149,93181.3903689848,73245.5317018561,-3525.2372912396,98869.3384289278
16620466153,43,3,0,19870.4937997959,21633.0455230832,94797.1266624065,-23816.5873887474,-62474.8933250338,-6938.6656163731,102070.0267428090,-72835.5898281944,-43704.8946966921,-11058.5869221372,-36086.4198588212,-59272.6718813529,102070.0267428090,102070.0267428090,-3383.0334184699,102070.0267428090
16620466153,43,3,0,9339.5590503856,2657.2424706782,91526.4497563997,-23910.7775298538,-64326.2205643413,-7033.8291732254,102070.0267428090,-75815.5561217074,-43826.1701309264,-11244.3876526235,-36250.3795735103,-75688.1603359712,99277.6254958216,95165.1021497259,-3581.6345660139,102070.0267428090
16620466153,43,3,0,-46807.8033989042,-50588.5623234255,80531.5363917369,-23945.4189627087,-62261.5570966372,-7061.4133419230,93379.4683055655,-73609.6378615858,-43905.1628187009,-11383.2332410701,-36368.8077666880,-65160.0241568302,88573.6174268017,18946.1625429443,-3723.1205446711,92110.0733345121
16620466153,43,3,0,-68031.8926317683,-69359.0598273370,79256.4591062672,-23879.4457105347,-61965.0181573653,-6987.7622730537,93046.7061328517,-72238.2289203688,-43824.1867963442,-11257.7477837351,-36250.8662813832,-55950.2214253645,91122.0563524892,51159.9938693214,-3558.8931406518,96798.7736282645
16620466153,43,3,0,-18121.3508784075,-17609.3220284013,90727.9933231814,-23817.6946491583,-62065.6206746973,-6937.5340205686,102070.0267428090,-71797.6852891974,-43714.4341710013,-11072.3607549408,-36097.0057550571,-53100.6685063997,102070.0267428090,102070.0267428090,-3376.1586697649,102070.0267428090
16620466153,43,3,0,33353.2996307551,28112.0277211824,94380.1275245874,-23891.5160657831,-64373.0175263223,-7018.1815151111,102070.0267428090,-76039.8676126384,-43795.8238950499,-11197.4203428870,-36215.3244389634,-76871.6513674547,101679.6870287290,98646.4262231315,-3543.2698179312,102070.0267428090
16620466153,43,3,0,-34446.7375380520,-39408.6269608731,85031.4061984942,-23935.2589358616,-63130.7321837904,-7050.9247872616,97371.7504716569,-74468.7867665569,-43877.1162775240,-11337.0568316270,-36330.8323849036,-69336.6347620923,92366.4953773588,51537.4114893754,-3685.9725662706,95664.9633029092
16620466153,43,3,0,-71138.4638107240,-72098.1787299368,76545.7517757490,-23908.0032949782,-61402.7002163898,-7013.9593243135,90742.3512054325,-71703.1422848831,-43863.9386618648,-11318.2942431261,-36300.4983167240,-53564.5497800775,88669.4380392824,24930.8077222178,-3614.5360182232,94167.7038734525
16620522696,44,3,0,-48319.8465800007,-50414.5155880702,86491.5906557313,-23843.4171602420,-62359.7504099983,-6956.7711492457,100029.6378302667,-71988.4382722907,-43753.7236640426,-11140.5728633302,-36146.5161134297,-53722.2187955092,98966.8381835700,95417.1924925036,-3432.3977644805,102070.0267428090
16620522696,44,3,0,47990.1750022799,45624.9329199587,96547.5350242644,-23870.5024533699,-63993.3853854465,-6991.9966315481,102070.0267428090,-75529.8951033952,-43761.3771453442,-11134.9392197012,-36161.5918897933,-74052.8340506646,102070.0267428090,102070.0267428090,-3483.7697804670,102070.0267428090
16620522696,44,3,0,-23877.0121711701,-29880.9553176049,87967.6782927161,-23925.0015674398,-63827.0408021801,-7040.2537171479,100296.2198999605,-74961.4324755242,-43855.0562431840,-11281.9006619286,-36286.9556701601,-71222.1532294722,96006.3037018832,81459.6152992100,-3624.8298897354,99710.8441735056
16620522696,44,3,0,-67961.5146733444,-69490.4709530248,75466.7204214905,-23944.2021930264,-61259.4985924806,-7050.2190608459,89664.5731239467,-71860.7626295275,-43908.0100597575,-11379.5099258423,-36358.4408889949,-55057.6965280080,86829.9134658932,4759.3702769001,-3683.5390269061,91747.9018385772
16620522696,44,3,0,-60206.9563142057,-63639.0985570529,83668.6971605056,-23871.6097137807,-62899.8744719687,-6982.8951943245,96814.4577894693,-73003.2485227177,-43796.6512984339,-11206.4122708391,-36207.3667652412,-58994.7616859169,95018.0677013175,81995.5536734733,-3506.3408580735,101015.5132976488
16620522696,44,3,0,40022.1830731700,40652.6522840507,96526.4727410639,-23843.0521293373,-63141.4275892978,-6966.0064311343,102070.0267428090,-74127.2516844338,-43725.5311105038,-11085.8303953238,-36115.1964618074,-66371.3670463414,102070.0267428090,102070.0267428090,-3421.5806820049,102070.0267428090
16620522696,44,3,0,-8918.8244296419,-15959.1024821834,89641.2354814403,-23928.8222242422,-64137.4874189206,-7050.0243776967,101863.5774308142,-75422.8923775343,-43847.5122711538,-11274.0159943874,-36274.2404269801,-73528.6740069260,97993.6657916711,93041.7295448511,-3599.4845772532,102070.0267428090
16620522696,44,3,0,-57665.6841619469,-60623.5174149391,77324.0463353317,-23966.5542520902,-61710.5794491007,-7079.4215332209,90885.9543633368,-72804.1363319071,-43927.0281698917,-11414.9300912939,-36387.2783304652,-60601.8224115038,86829.8404597123,2359.7057802668,-3731.2850692393,90901.5776860575
16620561600,45,3,0,-65334.8131216918,-67714.6807755942,81263.8492250257,-23880.3461200996,-62496.4179807136,-6987.7987761442,94702.0239440384,-72861.8355502414,-43809.1961938583,-11241.3092253273,-36231.1059417428,-59084.8513131940,92600.3463425989,63558.4632302073,-3545.8737050513,98230.9967182026
16620561600,45,3,0,8777.4844633466,10176.7330948945,93787.8527140339,-23825.8956768169,-62317.7961913528,-6945.4916942908,102070.0267428090,-72470.1452218141,-43708.8370304627,-11067.6518562703,-36090.4717018632,-57131.5222714198,102070.0267428090,102070.0267428090,-3384.9315791742,102070.0267428090
16620561600,45,3,0,14095.0234966055,7142.0730041623,92183.2741985989,-23923.5414438211,-64385.5624217468,-7044.0135354662,102070.0267428090,-75935.4931092912,-43827.9466146625,-11247.8432785212,-36253.1659760828,-76252.0722452305,99752.7740567575,95558.3621110434,-3583.5570621119,102070.0267428090
16620561600,45,3,0,-45308.8283241955,-49743.1020773802,81449.0172352772,-23956.5280699081,-62469.6247123095,-7069.2736740706,94274.2807299247,-73881.6345563659,-43904.2502414392,-11384.8758801412,-36368.7347605071,-66525.5804358753,89301.3308706914,24298.7080399628,-3724.4589913216,92677.0393356739
16620561600,45,3,0,-70526.8301945252,-71897.6672539915,78222.4847333441,-23896.5169891773,-61785.5811323173,-7003.0935710506,92229.9859867022,-72057.1979270371,-43837.1088903702,-11283.9570026917,-36273.1209988724,-55067.6375363124,90320.5093242779,39249.4613187322,-3582.8026649089,95983.0025624672
16620561600,45,3,0,-29455.1467672860,-29957.7699876481,89455.3739124699,-23834.6685862263,-62088.9948202942,-6950.2857668391,102070.0267428090,-71726.7354490228,-43729.3274319126,-11096.8543286453,-36116.8512685754,-52619.2170785095,102070.0267428090,98823.2106902720,-3395.5296431070,102070.0267428090
16620561600,45,3,0,36769.5386938548,31703.5424570165,94912.7927884054,-23895.1055363458,-64337.9745594722,-7019.3009432188,102070.0267428090,-76013.8774122246,-43792.7941385410,-11186.7249373796,-36208.1698332315,-76640.1244323077,102070.0267428090,99198.4259572011,-3533.1462941745,102070.0267428090
16620561600,45,3,0,-34731.1939543787,-40431.6869097461,85717.8833178509,-23938.5807170942,-63338.6659547977,-7051.2046442885,98067.3168605404,-74636.6644796231,-43872.6750681836,-11325.7043704912,-36322.6921957291,-69960.6185905664,93170.4637772378,59233.7352515195,-3670.2762373690,96503.1350985575
16620577322,46,3,0,-71913.6312722232,-72997.1403389125,75648.6031535998,-23922.3368418356,-61271.9218109368,-7027.4046293029,90102.5372033917,-71653.8022742661,-43874.5975642817,-11343.0676738576,-36317.1923967651,-53417.9412010579,87902.2160838086,13830.8506308826,-3633.1769297559,93280.4840919109
16620577322,46,3,0,-55283.3099624990,-58469.0928477721,85463.2255910436,-23858.5416073929,-62531.4609475637,-6968.1479457751,98867.9878145804,-72236.3794304518,-43765.3924852958,-11166.6847407122,-36164.3174538816,-54958.5663019915,97658.3240672308,87408.1102512226,-3451.3185330402,102070.0267428090
16620577322,46,3,0,46432.1379271927,44540.4261021299,96569.4490462426,-23865.4771945820,-63815.2381362618,-6989.7456076359,102070.0267428090,-75257.2656883804,-43749.4649701545,-11127.3587445805,-36151.2006767065,-72527.2725583978,102070.0267428090,102070.0267428090,-3466.5403217657,102070.0267428090
16620577322,46,3,0,-23896.2371321504,-30684.3031649460,88115.2481197847,-23931.6451299051,-63913.7356420435,-7047.7976891781,100512.8414064994,-75065.7704757809,-43852.6592069099,-11286.8650822324,-36287.8074089377,-71604.0972327444,96451.8482564488,85408.7264769736,-3613.5260993868,100315.6273763931
16620577322,46,3,0,-66995.4847194805,-68954.1432124631,75135.0168384003,-23956.1630390034,-61270.2183333816,-7064.0658998304,89505.7238419232,-72035.9531283843,-43917.7442172158,-11399.1972593018,-36372.8961128205,-56148.1411818864,86382.3125705645,-2426.8714667294,-3694.2952708975,91061.3395453427
16620577322,46,3,0,-64007.0497089787,-67705.5063321897,82844.4087069322,-23876.0387554243,-62928.2982117471,-6986.2778140413,95961.7090930271,-73191.6896434146,-43805.3025308750,-11218.4217876034,-36218.5488786215,-60042.0110160739,93966.8638696930,71218.9287898142,-3512.1691848517,99842.0484483474
16620577322,46,3,0,31514.2009267547,32372.2790744054,95788.4410902684,-23839.1462986571,-62893.2430772002,-6961.7964080336,102070.0267428090,-73662.2753180419,-43724.5455270611,-11078.7974665601,-36110.5484016211,-63849.8795691167,102070.0267428090,102070.0267428090,-3405.7018376510,102070.0267428090
16620577322,46,3,0,-6242.7950350691,-13856.6948189346,89962.2679944168,-23925.1110767112,-64211.2236616676,-7045.8995284737,102070.0267428090,-75583.3112924479,-43844.0809806497,-11270.5847038833,-36272.7194648772,-74327.8361665600,98091.6157510958,92820.1922887958,-3595.4449019080,102070.0267428090
16620625056,47,3,0,-56643.4881195484,-60152.1165046247,77493.2989981388,-23963.0377877083,-61812.2892268437,-7074.2259266775,91270.1250551276,-73109.7645407057,-43927.0525052854,-11413.0806013768,-36388.3855908761,-62346.5849620359,86888.7442800322,2187.5937087063,-3731.3459077234,90679.0183434691
16620625056,47,3,0,-69054.2955250128,-71410.5456793819,80042.6748364816,-23878.0829284905,-62283.8239818232,-6985.6207584129,93704.0781214080,-72635.5650601220,-43812.3597950323,-11246.6386765358,-36237.0194423987,-57894.6680484579,91689.4968938271,50324.3042838249,-3543.4766687772,97331.8769291681
16620625056,47,3,0,-4103.1663872389,-3208.9623477208,92456.4024891835,-23823.5959821174,-62187.4801583791,-6944.2870923053,102070.0267428090,-72161.0735548146,-43709.1168874896,-11068.4792596542,-36090.1553417458,-55299.8336947846,102070.0267428090,100684.4302670965,-3373.7981365812,102070.0267428090
16620625056,47,3,0,17471.8392219989,10408.0045084081,92555.0216719334,-23911.9334610520,-64409.3502690356,-7034.0116886777,102070.0267428090,-76027.9797728424,-43817.6527431503,-11229.3848824408,-36239.0636154650,-76724.1423788702,99965.4288941320,95315.2880316115,-3564.1982564666,102070.0267428090
16620625056,47,3,0,-46012.9121008550,-51074.0777620546,81886.1295759446,-23948.6920731541,-62627.7195971300,-7064.5891107938,94874.0143386306,-74095.5061634227,-43899.3709950132,-11370.7491841298,-36357.9541811219,-67621.6952364732,89817.4602345270,30823.0514118180,-3711.3908849338,93059.9445869951
16620625056,47,3,0,-72550.3181761805,-73846.2143909143,76804.6925318380,-23894.3998099301,-61551.1217822361,-7002.4851862095,91229.8864817341,-71874.6581392993,-43843.0345587229,-11288.7024044527,-36274.8731472149,-54171.4744976059,89315.8834360917,25886.8114938996,-3584.8711733688,94934.0132516646
16620625056,47,3,0,-40749.1421198567,-42328.3023166285,88013.1368080466,-23833.5004873313,-62157.7301396470,-6950.8698162866,101595.8029268317,-71748.9901665120,-43736.7497269746,-11108.6569945636,-36123.8720296422,-52546.1257236941,100618.0433132305,91230.6408789371,-3399.2042875475,102070.0267428090
16620625056,47,3,0,38420.1962771583,33756.7196189198,95104.9815597237,-23885.2253665256,-64253.2752218877,-7008.7880531638,102070.0267428090,-75911.4619080659,-43778.4970947741,-11166.3075421107,-36189.0422138259,-76024.7066623970,102070.0267428090,98887.3466202257,-3506.1096718339,102070.0267428090
16620639087,48,3,0,-35598.8237440354,-41915.1968417928,86105.3636231775,-23927.4959452885,-63517.1173964029,-7044.6340880041,98487.7229534698,-74744.9569813472,-43858.7308876245,-11302.3788956817,-36301.8002602841,-70357.2733392975,93771.6818449562,66235.0280034403,-3642.9110872143,97181.4233579524
16620639087,48,3,0,-72264.9005118047,-73479.1271454629,74470.7579334422,-23927.5202806822,-61137.7486180703,-7034.2672103110,89364.0310124201,-71671.5549439308,-43880.4623941503,-11343.7003940924,-36321.1225628389,-53677.8310374991,86975.6216353480,2243.7354618473,-3634.5518794969,92170.5711231157
16620639087,48,3,0,-62212.5821169248,-66229.2605151462,84273.4681956963,-23855.8038756077,-62694.6662650498,-6965.5562263518,97519.2107894541,-72513.3770486260,-43765.8548577750,-11162.7910777289,-36165.9235898623,-56446.5417787723,96120.6313812315,76509.0296667374,-3453.0220105954,102070.0267428090
16620639087,48,3,0,42867.3434535817,41602.4018595655,96234.2898372546,-23850.3527474311,-63589.8802234041,-6970.6423236238,102070.0267428090,-74882.2329369037,-43727.6482897510,-11088.6411332899,-36120.3433975635,-70545.6536215103,102070.0267428090,102064.6121177228,-3431.9840627886,102070.0267428090
16620639087,48,3,0,-23251.9332499820,-30743.0123021167,88097.9943256898,-23922.3246741388,-63982.6048060614,-7040.6187480526,100491.9129679639,-75166.2513161448,-43836.2571515926,-11264.6225324401,-36266.4165979230,-72159.9419590100,96581.5924076719,87378.9686173317,-3592.0622821912,100587.7700835350
16620639087,48,3,0,-66169.4441175646,-68554.7385642501,74332.4112205654,-23950.0426875014,-61252.6603468661,-7059.6490258837,89224.4066913768,-72247.3181898956,-43909.3120033175,-11392.6023676238,-36365.9483579346,-57476.5616502279,85780.0724163130,-8746.4081656608,-3695.9744130591,90160.8448065672
16620639087,48,3,0,-67997.0443480674,-71689.0642596590,81691.2517436284,-23868.5799572718,-62796.0596826754,-6975.8014270768,94914.4597628701,-73206.4855627513,-43792.8428093283,-11213.9927459598,-36212.5502040878,-60340.6184638057,92797.4751988274,57607.5225711333,-3514.1890225243,98568.2852741345
16620639087,48,3,0,21140.0469509080,22071.5814842788,94716.6251802259,-23824.1921992617,-62655.9973245465,-6943.8733906134,102070.0267428090,-73187.4066141329,-43704.2133056700,-11054.7419299411,-36086.4685296085,-61248.9248639415,102070.0267428090,101588.9281781267,-3379.8698172959,102070.0267428090
16620663975,49,3,0,-4021.0466013808,-12152.0735002213,90057.5775636309,-23913.0772245533,-64287.3569406888,-7035.4839799933,102070.0267428090,-75735.2858257665,-43827.4355713959,-11246.3344841152,-36252.8252805717,-75094.5957495545,97954.7778326250,91125.5484814774,-3579.2131943461,102023.5948117327
16620663975,49,3,0,-57014.5907049513,-61122.6728417066,77187.8654724893,-23949.5803150222,-61867.9807752023,-7062.9221363290,91495.4464648948,-73358.5209345539,-43911.8428842567,-11392.7970507729,-36375.7068507866,-63794.3827039073,86849.2236007512,4193.9739086285,-3725.2377239183,90349.7117966529
16620663975,49,3,0,-71919.8733006934,-74167.9526303065,78430.8322060433,-23869.5290376240,-62026.3068462624,-6977.3588922701,92515.7200111953,-72385.2998718677,-43812.6031489688,-11244.8378574060,-36237.1654547606,-56691.8547144196,90574.8506909678,35627.0771360583,-3546.4212514083,96235.5796131179
16620663975,49,3,0,-17681.0019303852,-17614.8461627589,90840.3255002508,-23814.7257311335,-62126.5808357803,-6932.5817679617,102070.0267428090,-71933.9269905239,-43709.5914276657,-11064.7194413360,-36090.1796771395,-53986.1239719020,102070.0267428090,94072.6376581749,-3372.8490562291,102070.0267428090
16620663975,49,3,0,19500.1456115960,12324.9521366817,92594.6518604858,-23903.9392842393,-64418.4273708655,-7025.8714995032,102070.0267428090,-76074.8132379139,-43808.3687904744,-11211.8877344094,-36229.0009301924,-76858.9117888811,99910.8202707907,93126.3923793451,-3557.0071476443,102070.0267428090
